Trigger_Date,2023/07/06
Trigger_Time,T 14:52:03.004 PDT
Samples_Per_Cycle,512
Microseconds_Per_Sample,32.547
Time (ms),Voltage (V),Current (A)
-16.66,5.931,0.172
-16.63,7.3,0.286
-16.6,9.3,0.378
-16.57,13.055,0.687
-16.53,18.285,0.71
-16.5,21.478,0.355
-16.47,24.075,0.573
-16.44,28.918,0.848
-16.4,33.411,0.722
-16.37,36.113,0.687
-16.34,38.324,0.779
-16.31,40.781,0.848
-16.27,43.343,0.882
-16.24,46.08,0.951
-16.21,49.59,1.031
-16.18,53.731,1.02
-16.14,57.837,1.02
-16.11,61.627,0.962
-16.08,65.102,0.836
-16.05,67.909,0.836
-16.01,71.173,0.939
-15.98,74.648,0.962
-15.95,77.982,0.997
-15.92,81.526,1.157
-15.88,85.597,1.294
-15.85,89.633,1.249
-15.82,93.108,1.214
-15.79,96.231,1.272
-15.75,99.39,1.432
-15.72,102.969,1.501
-15.69,106.409,1.432
-15.65,109.673,1.466
-15.62,113.007,1.638
-15.59,116.516,1.741
-15.56,120.236,1.741
-15.52,123.5,1.673
-15.49,126.308,1.73
-15.46,129.431,1.936
-15.43,133.151,2.039
-15.39,136.591,2.028
-15.36,139.784,2.245
-15.33,143.996,2.497
-15.3,147.891,2.463
-15.26,150.383,2.325
-15.23,153.015,2.429
-15.2,156.735,2.555
-15.17,159.438,2.497
-15.13,161.964,2.681
-15.1,165.93,2.772
-15.07,169.545,2.623
-15.04,171.651,2.6
-15.0,174.072,2.864
-14.97,177.161,2.921
-14.94,179.723,2.956
-14.91,182.46,3.036
-14.87,185.303,3.208
-14.84,188.602,3.391
-14.81,191.83,3.379
-14.78,194.077,3.46
-14.74,196.182,3.7
-14.71,198.463,3.803
-14.68,200.745,3.838
-14.65,203.096,3.849
-14.61,205.588,3.929
-14.58,208.185,4.009
-14.55,210.501,4.032
-14.52,212.607,4.113
-14.48,214.642,4.33
-14.45,216.537,4.445
-14.42,218.643,4.548
-14.39,221.1,4.605
-14.35,223.451,4.731
-14.32,225.978,4.914
-14.29,228.365,4.972
-14.26,230.646,4.983
-14.22,232.962,4.972
-14.19,234.401,4.914
-14.16,236.121,5.029
-14.13,238.718,5.029
-14.09,240.718,4.949
-14.06,242.438,5.029
-14.03,244.122,5.098
-14.0,246.017,5.166
-13.96,248.264,5.166
-13.93,249.808,5.063
-13.9,251.036,5.144
-13.86,252.896,5.201
-13.83,254.581,5.178
-13.8,256.335,5.201
-13.77,258.266,5.235
-13.73,259.915,5.338
-13.7,261.67,5.407
-13.67,263.179,5.338
-13.64,264.548,5.315
-13.6,266.232,5.35
-13.57,267.776,5.384
-13.54,269.25,5.418
-13.51,270.97,5.407
-13.47,272.479,5.407
-13.44,273.708,5.407
-13.41,274.234,5.338
-13.38,275.006,5.304
-13.34,276.199,5.212
-13.31,277.498,5.281
-13.28,278.867,5.407
-13.25,280.411,5.522
-13.21,281.92,5.579
-13.18,283.289,5.602
-13.15,284.341,5.59
-13.12,285.289,5.613
-13.08,286.447,5.556
-13.05,287.5,5.487
-13.02,288.588,5.487
-12.99,289.746,5.556
-12.95,290.764,5.579
-12.92,291.641,5.544
-12.89,292.238,5.453
-12.86,292.729,5.418
-12.82,293.045,5.35
-12.79,293.256,5.327
-12.76,293.887,5.281
-12.73,294.554,5.292
-12.69,294.94,5.315
-12.66,295.186,5.384
-12.63,295.502,5.35
-12.6,295.747,5.247
-12.56,295.186,5.098
-12.53,294.765,5.155
-12.5,295.712,5.212
-12.47,296.028,5.155
-12.43,295.923,5.166
-12.4,295.818,5.201
-12.37,295.677,5.166
-12.34,295.502,5.166
-12.3,295.853,5.121
-12.27,295.467,5.029
-12.24,295.502,5.155
-12.2,295.712,5.132
-12.17,295.502,5.098
-12.14,294.765,4.926
-12.11,293.607,4.834
-12.07,292.764,4.731
-12.04,291.501,4.571
-12.01,290.343,4.502
-11.98,289.816,4.502
-11.94,288.974,4.513
-11.91,287.851,4.594
-11.88,287.079,4.571
-11.85,285.815,4.433
-11.81,284.271,4.376
-11.78,282.938,4.342
-11.75,281.779,4.307
-11.72,280.902,4.284
-11.68,279.849,4.239
-11.65,278.34,4.239
-11.62,276.831,4.204
-11.59,275.322,4.124
-11.55,273.883,4.021
-11.52,272.374,3.941
-11.49,270.724,3.975
-11.46,269.321,3.987
-11.42,268.057,3.929
-11.39,266.724,3.872
-11.36,265.109,3.872
-11.33,263.249,3.838
-11.29,261.53,3.78
-11.26,260.371,3.746
-11.23,259.108,3.654
-11.2,257.002,3.597
-11.16,255.002,3.643
-11.13,253.949,3.597
-11.1,252.229,3.402
-11.07,249.843,3.356
-11.03,247.807,3.345
-11.0,246.158,3.334
-10.97,244.438,3.196
-10.94,242.438,3.127
-10.9,240.297,3.07
-10.87,238.121,3.116
-10.84,236.787,3.127
-10.81,234.892,2.933
-10.77,232.436,2.864
-10.74,230.505,2.91
-10.71,228.786,2.864
-10.68,226.645,2.772
-10.64,224.504,2.795
-10.61,223.03,2.807
-10.58,220.889,2.646
-10.55,217.976,2.543
-10.51,215.134,2.612
-10.48,212.888,2.669
-10.45,210.852,2.509
-10.41,208.466,2.44
-10.38,205.869,2.532
-10.35,203.447,2.646
-10.32,201.341,2.486
-10.28,198.393,2.257
-10.25,194.954,2.303
-10.22,191.866,2.463
-10.19,189.268,2.474
-10.15,187.163,2.394
-10.12,184.846,2.257
-10.09,181.969,2.234
-10.06,179.161,2.165
-10.02,176.248,1.993
-9.99,172.914,1.879
-9.96,169.615,1.81
-9.93,166.492,1.821
-9.89,163.895,1.799
-9.86,161.368,1.673
-9.83,157.788,1.466
-9.8,153.506,1.306
-9.76,149.821,1.398
-9.73,146.944,1.352
-9.7,143.89,1.214
-9.67,141.083,1.272
-9.63,138.38,1.203
-9.6,135.187,1.191
-9.57,131.958,1.031
-9.54,128.308,0.951
-9.5,125.5,1.1
-9.47,122.833,1.008
-9.44,119.078,0.836
-9.41,115.182,0.768
-9.37,112.094,0.871
-9.34,108.936,0.71
-9.31,104.408,0.515
-9.28,100.197,0.596
-9.24,96.617,0.515
-9.21,92.3,0.424
-9.18,88.405,0.493
-9.15,85.352,0.538
-9.11,82.368,0.47
-9.08,79.105,0.481
-9.05,76.192,0.504
-9.02,73.419,0.412
-8.98,69.98,0.275
-8.95,65.874,0.321
-8.92,62.469,0.435
-8.89,59.381,0.378
-8.85,55.872,0.252
-8.82,52.046,0.321
-8.79,49.098,0.344
-8.76,45.589,0.137
-8.72,41.553,0.115
-8.69,37.903,0.046
-8.66,35.376,0.16
-8.62,36.008,0.653
-8.59,39.412,0.871
-8.56,38.219,-0.149
-8.53,28.392,-1.317
-8.49,16.074,-1.409
-8.46,6.282,-0.928
-8.43,-0.456,-0.676
-8.4,-4.738,-0.412
-8.36,-5.966,-0.023
-8.33,-5.51,0.023
-8.3,-6.036,-0.241
-8.27,-8.353,-0.424
-8.23,-12.459,-0.653
-8.2,-17.407,-0.642
-8.17,-21.268,-0.515
-8.14,-24.953,-0.573
-8.1,-28.673,-0.642
-8.07,-32.393,-0.733
-8.04,-35.587,-0.687
-8.01,-38.078,-0.71
-7.97,-40.605,-0.882
-7.94,-43.834,-0.962
-7.91,-46.887,-0.939
-7.88,-50.081,-1.008
-7.84,-54.222,-1.054
-7.81,-58.539,-0.905
-7.78,-61.803,-0.768
-7.75,-64.68,-0.859
-7.71,-68.155,-0.928
-7.68,-71.559,-0.871
-7.65,-74.437,-0.939
-7.62,-77.736,-1.042
-7.58,-81.807,-1.134
-7.55,-85.703,-1.146
-7.52,-89.037,-1.249
-7.49,-92.792,-1.363
-7.45,-96.617,-1.306
-7.42,-99.776,-1.249
-7.39,-102.724,-1.398
-7.36,-105.988,-1.535
-7.32,-109.602,-1.558
-7.29,-113.252,-1.535
-7.26,-116.551,-1.604
-7.23,-119.815,-1.753
-7.19,-123.5,-1.844
-7.16,-127.15,-1.787
-7.13,-130.168,-1.776
-7.1,-132.906,-1.936
-7.06,-136.345,-2.096
-7.03,-139.784,-2.142
-7.0,-142.943,-2.268
-6.96,-146.944,-2.497
-6.93,-150.453,-2.417
-6.9,-153.05,-2.509
-6.87,-156.911,-2.669
-6.83,-160.876,-2.497
-6.8,-163.193,-2.417
-6.77,-165.755,-2.761
-6.74,-169.791,-2.852
-6.7,-172.739,-2.612
-6.67,-174.809,-2.761
-6.64,-177.512,-2.956
-6.61,-180.389,-3.036
-6.57,-183.162,-3.082
-6.54,-185.97,-3.07
-6.51,-188.847,-3.253
-6.48,-191.866,-3.448
-6.44,-194.287,-3.563
-6.41,-196.603,-3.712
-6.38,-198.955,-3.815
-6.35,-201.096,-3.872
-6.31,-203.447,-3.929
-6.28,-206.219,-3.952
-6.25,-208.852,-3.975
-6.22,-210.957,-4.044
-6.18,-213.168,-4.158
-6.15,-215.309,-4.25
-6.12,-217.345,-4.399
-6.09,-219.31,-4.594
-6.05,-221.661,-4.708
-6.02,-224.118,-4.743
-5.99,-226.294,-4.731
-5.96,-228.329,-4.869
-5.92,-230.681,-4.949
-5.89,-232.927,-4.949
-5.86,-235.068,-4.949
-5.83,-236.928,-4.914
-5.79,-238.647,-5.029
-5.76,-240.999,-5.121
-5.73,-242.683,-4.949
-5.7,-244.263,-5.063
-5.66,-246.86,-5.121
-5.63,-248.158,-5.098
-5.6,-249.422,-5.121
-5.57,-250.931,-5.029
-5.53,-252.861,-5.075
-5.5,-254.195,-5.04
-5.47,-255.388,-5.144
-5.44,-257.529,-5.235
-5.4,-259.81,-5.258
-5.37,-261.214,-5.315
-5.34,-262.547,-5.396
-5.31,-264.091,-5.373
-5.27,-265.776,-5.327
-5.24,-267.461,-5.327
-5.21,-269.075,-5.384
-5.17,-270.584,-5.441
-5.14,-272.198,-5.464
-5.11,-273.286,-5.361
-5.08,-273.988,-5.27
-5.04,-274.831,-5.27
-5.01,-275.954,-5.27
-4.98,-277.393,-5.304
-4.95,-278.902,-5.373
-4.91,-280.235,-5.464
-4.88,-281.709,-5.613
-4.85,-283.043,-5.613
-4.82,-284.166,-5.567
-4.78,-285.219,-5.51
-4.75,-286.096,-5.499
-4.72,-287.009,-5.476
-4.69,-288.237,-5.487
-4.65,-289.465,-5.453
-4.62,-290.448,-5.499
-4.59,-291.115,-5.499
-4.56,-291.606,-5.476
-4.52,-292.273,-5.396
-4.49,-292.589,-5.292
-4.46,-292.694,-5.258
-4.43,-293.431,-5.338
-4.39,-294.133,-5.304
-4.36,-294.519,-5.292
-4.33,-294.659,-5.27
-4.3,-294.94,-5.338
-4.26,-295.326,-5.304
-4.23,-295.151,-5.178
-4.2,-294.975,-5.109
-4.17,-295.396,-5.201
-4.13,-295.853,-5.178
-4.1,-295.818,-5.201
-4.07,-295.747,-5.132
-4.04,-295.958,-5.224
-4.0,-296.309,-5.155
-3.97,-294.695,-4.914
-3.94,-294.203,-5.006
-3.91,-295.256,-4.983
-3.87,-295.186,-4.96
-3.84,-294.308,-4.995
-3.81,-293.361,-4.892
-3.78,-292.378,-4.731
-3.74,-291.466,-4.594
-3.71,-290.097,-4.502
-3.68,-288.974,-4.502
-3.65,-288.553,-4.525
-3.61,-288.062,-4.513
-3.58,-287.079,-4.559
-3.55,-286.026,-4.594
-3.52,-284.868,-4.525
-3.48,-283.78,-4.422
-3.45,-282.657,-4.33
-3.42,-281.499,-4.342
-3.38,-280.586,-4.365
-3.35,-279.639,-4.296
-3.32,-278.445,-4.25
-3.29,-277.182,-4.216
-3.25,-275.497,-4.135
-3.22,-273.708,-4.067
-3.19,-272.304,-3.929
-3.16,-270.689,-3.838
-3.12,-269.11,-3.849
-3.09,-267.706,-3.883
-3.06,-266.513,-3.895
-3.03,-265.144,-3.838
-2.99,-263.249,-3.769
-2.96,-261.354,-3.792
-2.93,-260.091,-3.769
-2.9,-258.652,-3.643
-2.86,-257.037,-3.597
-2.83,-255.247,-3.551
-2.8,-253.282,-3.551
-2.77,-251.949,-3.54
-2.73,-250.334,-3.379
-2.7,-248.088,-3.288
-2.67,-246.088,-3.322
-2.64,-244.473,-3.276
-2.6,-242.438,-3.127
-2.57,-240.016,-2.99
-2.54,-238.367,-3.07
-2.51,-236.542,-2.99
-2.47,-234.12,-2.978
-2.44,-232.19,-2.83
-2.41,-229.733,-2.749
-2.38,-228.189,-2.841
-2.34,-226.575,-2.795
-2.31,-224.504,-2.772
-2.28,-222.609,-2.807
-2.25,-220.889,-2.738
-2.21,-218.222,-2.532
-2.18,-215.239,-2.52
-2.15,-212.642,-2.6
-2.12,-210.396,-2.612
-2.08,-208.255,-2.486
-2.05,-206.044,-2.451
-2.02,-203.517,-2.474
-1.99,-200.745,-2.52
-1.95,-198.112,-2.44
-1.92,-195.41,-2.303
-1.89,-192.322,-2.257
-1.86,-189.023,-2.36
-1.82,-186.426,-2.451
-1.79,-184.39,-2.337
-1.76,-181.828,-2.165
-1.72,-178.81,-2.108
-1.69,-176.038,-2.062
-1.66,-172.949,-1.902
-1.63,-169.615,-1.776
-1.59,-166.351,-1.764
-1.56,-163.684,-1.787
-1.53,-161.122,-1.65
-1.5,-157.753,-1.432
-1.46,-153.752,-1.317
-1.43,-150.102,-1.317
-1.4,-146.873,-1.306
-1.37,-143.89,-1.294
-1.33,-141.013,-1.191
-1.3,-138.24,-1.214
-1.27,-135.432,-1.111
-1.24,-131.432,-0.985
-1.2,-128.168,-1.1
-1.17,-125.36,-0.962
-1.14,-122.061,-0.859
-1.11,-118.06,-0.779
-1.07,-114.516,-0.905
-1.04,-111.954,-0.859
-1.01,-108.549,-0.596
-0.98,-103.987,-0.504
-0.94,-100.056,-0.642
-0.91,-96.652,-0.55
-0.88,-92.616,-0.401
-0.85,-88.37,-0.447
-0.81,-85.562,-0.619
-0.78,-83.0,-0.47
-0.75,-79.491,-0.332
-0.72,-75.876,-0.435
-0.68,-72.998,-0.47
-0.65,-69.804,-0.298
-0.62,-65.874,-0.241
-0.59,-62.154,-0.344
-0.55,-58.714,-0.401
-0.52,-55.415,-0.332
-0.49,-51.73,-0.241
-0.46,-47.975,-0.241
-0.42,-44.571,-0.172
-0.39,-40.71,0.046
-0.36,-36.429,0.08
-0.33,-33.34,-0.08
-0.29,-33.762,-0.584
-0.26,-37.798,-0.905
-0.23,-36.815,0.321
-0.2,-26.041,1.478
-0.16,-14.354,1.237
-0.13,-5.51,0.928
-0.1,1.509,0.768
-0.07,5.51,0.344
-0.03,5.896,-0.069
0.0,5.264,0.069
0.03,6.036,0.275
0.07,8.072,0.401
0.1,11.827,0.664
0.13,17.337,0.779
0.16,21.513,0.481
0.2,24.426,0.504
0.23,28.252,0.676
0.26,31.937,0.71
0.29,35.025,0.745
0.33,37.833,0.756
0.36,40.254,0.768
0.39,42.992,0.962
0.42,46.606,1.02
0.46,50.116,0.974
0.49,53.625,1.042
0.52,57.907,1.077
0.55,61.943,0.871
0.59,64.926,0.779
0.62,67.944,0.916
0.65,71.7,0.997
0.68,75.139,0.939
0.72,78.122,1.031
0.75,81.807,1.191
0.78,85.983,1.191
0.81,89.493,1.168
0.85,92.686,1.306
0.88,96.371,1.443
0.91,100.197,1.398
0.94,103.32,1.306
0.98,106.058,1.42
1.01,109.251,1.638
1.04,113.322,1.718
1.07,117.007,1.604
1.11,120.096,1.627
1.14,123.219,1.776
1.17,126.588,1.902
1.2,130.133,1.89
1.24,133.116,1.89
1.27,135.994,2.085
1.3,139.995,2.337
1.33,144.417,2.417
1.37,148.067,2.406
1.4,150.769,2.257
1.43,152.84,2.406
1.46,155.998,2.692
1.5,159.473,2.577
1.53,162.701,2.532
1.56,165.895,2.612
1.59,169.019,2.749
1.63,171.896,2.772
1.66,174.774,2.784
1.69,177.055,2.841
1.72,179.688,3.059
1.76,182.741,3.173
1.79,185.829,3.242
1.82,189.128,3.265
1.86,191.655,3.322
1.89,193.69,3.54
1.92,196.252,3.735
1.95,198.674,3.78
1.99,200.815,3.815
2.02,202.85,3.883
2.05,205.412,3.998
2.08,208.255,3.987
2.12,210.571,3.987
2.15,212.502,4.17
2.18,215.063,4.353
2.21,216.994,4.319
2.25,218.538,4.468
2.28,220.784,4.639
2.31,223.381,4.8
2.34,226.189,4.869
2.38,228.435,4.857
2.41,230.47,4.983
2.44,232.892,5.075
2.47,234.612,4.949
2.51,236.331,4.972
2.54,238.858,4.972
2.57,240.543,4.995
2.6,242.473,5.144
2.64,244.579,5.109
2.67,246.579,5.121
2.7,248.018,5.063
2.73,249.457,5.201
2.77,251.598,5.166
2.8,252.861,5.086
2.83,254.932,5.224
2.86,256.897,5.235
2.9,258.266,5.315
2.93,260.056,5.361
2.96,262.021,5.338
2.99,263.284,5.258
3.03,264.372,5.35
3.06,266.267,5.396
3.09,268.057,5.338
3.12,269.426,5.361
3.16,270.935,5.418
3.19,272.339,5.453
3.22,273.532,5.396
3.25,274.129,5.235
3.29,274.831,5.224
3.32,275.989,5.235
3.35,277.322,5.327
3.38,278.831,5.384
3.42,280.305,5.464
3.45,281.744,5.579
3.48,283.148,5.67
3.52,284.341,5.648
3.55,285.394,5.59
3.58,286.482,5.499
3.61,287.465,5.51
3.65,288.553,5.544
3.68,289.851,5.567
3.71,291.045,5.522
3.74,291.747,5.522
3.78,292.343,5.51
3.81,292.94,5.476
3.84,293.221,5.338
3.87,293.361,5.258
3.91,293.887,5.281
3.94,294.589,5.327
3.97,294.975,5.327
4.0,295.256,5.304
4.04,295.326,5.258
4.07,295.502,5.281
4.1,295.186,5.144
4.13,294.8,5.109
4.17,295.396,5.121
4.2,295.782,5.132
4.23,295.537,5.166
4.26,295.396,5.201
4.3,295.432,5.109
4.33,295.151,5.098
4.36,295.432,5.144
4.39,295.116,5.086
4.43,295.256,5.166
4.46,295.432,5.075
4.49,295.186,5.075
4.52,294.449,4.972
4.56,293.466,4.892
4.59,292.659,4.697
4.62,291.255,4.502
4.65,290.027,4.491
4.69,289.5,4.559
4.72,288.904,4.536
4.75,287.886,4.536
4.78,286.868,4.525
4.82,285.5,4.491
4.85,284.236,4.456
4.88,283.289,4.365
4.91,282.13,4.296
4.95,281.007,4.296
4.98,279.709,4.296
5.01,278.41,4.273
5.04,277.217,4.181
5.08,275.638,4.055
5.11,273.708,4.021
5.14,272.163,4.009
5.17,270.935,3.964
5.21,269.531,3.872
5.24,267.776,3.849
5.27,266.373,3.929
5.31,265.109,3.918
5.34,263.46,3.815
5.37,261.53,3.7
5.4,259.915,3.712
5.44,258.441,3.7
5.47,256.651,3.62
5.5,255.142,3.574
5.53,253.809,3.528
5.57,251.773,3.46
5.6,249.387,3.437
5.63,247.667,3.356
5.66,246.263,3.253
5.7,244.333,3.185
5.73,242.227,3.242
5.76,240.262,3.15
5.79,238.156,3.059
5.83,236.682,3.024
5.86,234.682,2.956
5.89,232.436,2.99
5.92,230.821,2.967
5.96,228.996,2.841
5.99,226.785,2.772
6.02,224.715,2.761
6.05,222.96,2.772
6.09,220.644,2.646
6.12,217.696,2.612
6.15,215.52,2.612
6.18,213.449,2.509
6.22,210.536,2.429
6.25,207.623,2.612
6.28,205.904,2.681
6.31,204.114,2.451
6.35,201.096,2.28
6.38,197.656,2.429
6.41,195.164,2.577
6.44,192.848,2.406
6.48,189.795,2.222
6.51,186.847,2.337
6.54,184.531,2.417
6.57,182.074,2.268
6.61,179.091,2.073
6.64,175.967,2.028
6.67,173.23,1.993
6.7,170.107,1.856
6.74,166.632,1.776
6.77,163.789,1.753
6.8,161.052,1.673
6.83,157.823,1.489
6.87,153.682,1.272
6.9,150.102,1.398
6.93,147.54,1.306
6.96,143.855,1.146
7.0,140.627,1.363
7.03,138.38,1.294
7.06,135.678,1.123
7.1,131.958,0.928
7.13,127.852,0.962
7.16,124.869,1.157
7.19,122.517,0.997
7.23,119.008,0.745
7.26,114.867,0.745
7.29,111.743,0.928
7.32,108.83,0.756
7.36,104.408,0.458
7.39,99.846,0.55
7.42,96.407,0.596
7.45,92.616,0.458
7.49,88.615,0.447
7.52,85.316,0.538
7.55,82.579,0.573
7.58,79.771,0.47
7.62,76.683,0.389
7.65,73.349,0.389
7.68,70.05,0.412
7.71,66.716,0.378
7.75,63.347,0.321
7.78,59.732,0.298
7.81,56.047,0.367
7.84,52.783,0.355
7.88,49.274,0.275
7.91,45.343,0.183
7.94,41.693,0.16
7.97,38.148,-0.034
8.01,35.236,0.103
8.04,35.762,0.71
8.07,39.412,0.939
8.1,38.394,-0.183
8.14,28.287,-1.42
8.17,16.003,-1.363
8.2,6.598,-0.905
8.23,-0.491,-0.756
8.27,-5.159,-0.435
8.3,-6.528,-0.057
8.33,-6.422,-0.046
8.36,-7.195,-0.229
8.4,-9.16,-0.344
8.43,-12.283,-0.527
8.46,-16.425,-0.561
8.49,-20.11,-0.55
8.53,-24.04,-0.63
8.56,-28.041,-0.607
8.59,-31.761,-0.687
8.62,-35.271,-0.768
8.66,-38.394,-0.848
8.69,-41.447,-0.905
8.72,-44.466,-0.916
8.76,-47.133,-0.928
8.79,-50.362,-0.951
8.82,-54.012,-0.939
8.85,-57.591,-0.928
8.89,-61.241,-0.985
8.92,-65.102,-0.916
8.95,-68.506,-0.859
8.98,-71.594,-0.916
9.02,-74.928,-0.939
9.05,-78.157,-0.951
9.08,-81.386,-1.088
9.11,-85.106,-1.249
9.15,-89.352,-1.306
9.18,-93.318,-1.237
9.21,-96.512,-1.26
9.24,-99.635,-1.409
9.28,-103.11,-1.478
9.31,-106.479,-1.398
9.34,-109.462,-1.409
9.37,-112.55,-1.581
9.41,-116.27,-1.764
9.44,-120.306,-1.776
9.47,-123.851,-1.695
9.5,-126.904,-1.764
9.54,-130.133,-1.902
9.57,-133.502,-1.993
9.6,-136.871,-2.039
9.63,-140.1,-2.211
9.67,-143.855,-2.429
9.7,-147.926,-2.52
9.73,-151.085,-2.394
9.76,-153.717,-2.371
9.8,-156.876,-2.509
9.83,-159.929,-2.577
9.86,-162.842,-2.658
9.89,-166.316,-2.704
9.93,-169.791,-2.623
9.96,-171.931,-2.612
9.99,-174.388,-2.852
10.02,-177.196,-2.887
10.06,-179.863,-2.967
10.09,-182.811,-3.047
10.12,-185.513,-3.139
10.15,-188.496,-3.345
10.19,-191.971,-3.448
10.22,-194.498,-3.482
10.25,-196.709,-3.78
10.28,-200.323,-4.067
10.32,-203.552,-4.009
10.35,-205.939,-4.044
10.38,-208.817,-4.17
10.41,-211.519,-4.158
10.45,-213.66,-4.193
10.48,-215.836,-4.353
10.51,-218.398,-4.605
10.55,-221.416,-4.846
10.58,-224.399,-4.937
10.61,-226.996,-4.972
10.64,-229.242,-5.04
10.68,-231.628,-5.109
10.71,-234.015,-5.098
10.74,-236.507,-5.052
10.77,-238.542,-4.972
10.81,-239.876,-4.96
10.84,-241.139,-4.914
10.87,-242.648,-4.869
10.9,-244.614,-4.834
10.94,-245.947,-4.8
10.97,-247.176,-4.972
11.0,-249.597,-5.144
11.03,-251.422,-5.052
11.07,-252.37,-5.063
11.1,-253.668,-5.086
11.13,-255.072,-5.109
11.16,-256.897,-5.155
11.2,-258.511,-5.121
11.23,-260.126,-5.212
11.26,-262.126,-5.373
11.29,-263.6,-5.338
11.33,-264.618,-5.315
11.36,-265.987,-5.224
11.39,-267.32,-5.247
11.42,-269.18,-5.361
11.46,-270.549,-5.338
11.49,-271.918,-5.384
11.52,-273.216,-5.315
11.55,-273.918,-5.315
11.59,-274.831,-5.27
11.62,-275.462,-5.178
11.65,-276.971,-5.292
11.68,-278.761,-5.338
11.72,-280.235,-5.522
11.75,-281.885,-5.648
11.78,-283.464,-5.682
11.81,-284.798,-5.636
11.85,-285.64,-5.579
11.88,-286.447,-5.556
11.91,-287.675,-5.499
11.94,-288.939,-5.441
11.98,-290.097,-5.476
12.01,-291.36,-5.59
12.04,-292.413,-5.59
12.07,-292.975,-5.522
12.11,-293.291,-5.407
12.14,-293.677,-5.338
12.17,-293.958,-5.304
12.2,-294.414,-5.304
12.24,-295.291,-5.304
12.27,-296.063,-5.35
12.3,-296.344,-5.361
12.34,-296.204,-5.338
12.37,-296.414,-5.315
12.4,-296.8,-5.201
12.43,-296.449,-5.098
12.47,-296.133,-5.121
12.5,-296.519,-5.155
12.53,-296.976,-5.144
12.56,-296.73,-5.086
12.6,-296.133,-5.063
12.63,-295.537,-5.04
12.66,-296.063,-5.075
12.69,-290.343,-3.551
12.73,-277.498,-2.417
12.76,-273.918,-2.658
12.79,-274.164,-2.325
12.82,-270.865,-2.44
12.86,-268.724,-3.013
12.89,-267.039,-3.345
12.92,-265.179,-3.872
12.95,-266.794,-4.697
12.99,-270.163,-5.155
13.02,-271.777,-5.453
13.05,-273.322,-5.888
13.08,-277.042,-6.255
13.12,-280.165,-6.14
13.15,-280.095,-5.67
13.18,-278.972,-5.315
13.21,-279.358,-5.029
13.25,-280.13,-4.777
13.28,-280.341,-4.594
13.31,-279.814,-4.513
13.34,-278.831,-4.445
13.38,-277.708,-4.387
13.41,-276.445,-4.273
13.44,-275.287,-4.135
13.47,-274.023,-4.055
13.51,-272.62,-4.044
13.54,-271.321,-4.055
13.57,-270.058,-3.998
13.6,-269.005,-3.987
13.64,-267.812,-3.975
13.67,-265.811,-3.883
13.7,-263.881,-3.826
13.73,-262.653,-3.746
13.77,-261.319,-3.643
13.8,-259.529,-3.643
13.83,-257.774,-3.654
13.86,-256.335,-3.654
13.9,-254.967,-3.551
13.93,-253.107,-3.471
13.96,-251.071,-3.471
14.0,-249.457,-3.46
14.03,-247.667,-3.299
14.06,-245.491,-3.15
14.09,-243.034,-3.047
14.13,-240.648,-3.047
14.16,-238.858,-2.99
14.19,-236.507,-2.795
14.22,-233.734,-2.704
14.26,-231.172,-2.669
14.29,-228.821,-2.635
14.32,-226.399,-2.6
14.35,-224.223,-2.761
14.39,-223.241,-2.807
14.42,-221.205,-2.577
14.45,-218.011,-2.486
14.48,-215.239,-2.589
14.52,-213.239,-2.681
14.55,-211.238,-2.474
14.58,-208.641,-2.406
14.61,-206.325,-2.543
14.65,-204.079,-2.6
14.68,-201.727,-2.474
14.71,-198.814,-2.245
14.74,-195.41,-2.257
14.78,-192.216,-2.417
14.81,-189.69,-2.486
14.84,-187.584,-2.36
14.87,-185.057,-2.234
14.91,-182.109,-2.188
14.94,-179.442,-2.211
14.97,-176.669,-1.947
15.0,-172.458,-1.718
15.04,-169.019,-1.833
15.07,-166.0,-1.718
15.1,-162.947,-1.73
15.13,-160.701,-1.673
15.17,-157.858,-1.524
15.2,-154.63,-1.443
15.23,-151.19,-1.375
15.26,-148.032,-1.317
15.3,-144.978,-1.249
15.33,-142.03,-1.237
15.36,-139.328,-1.214
15.39,-136.205,-1.168
15.43,-132.941,-1.077
15.46,-129.15,-0.894
15.49,-125.36,-0.905
15.52,-121.921,-0.928
15.56,-117.99,-0.813
15.59,-114.375,-0.79
15.62,-110.76,-0.653
15.65,-106.584,-0.573
15.69,-102.443,-0.596
15.72,-99.004,-0.642
15.75,-95.775,-0.504
15.79,-91.704,-0.435
15.82,-88.054,-0.493
15.85,-85.211,-0.527
15.88,-82.509,-0.458
15.92,-79.28,-0.435
15.95,-76.332,-0.527
15.98,-73.946,-0.458
16.01,-70.436,-0.195
16.05,-66.154,-0.263
16.08,-62.75,-0.447
16.11,-59.837,-0.378
16.14,-56.293,-0.229
16.18,-52.222,-0.241
16.21,-48.888,-0.321
16.24,-45.799,-0.183
16.27,-41.658,0.011
16.31,-37.447,0.0
16.34,-35.165,-0.183
16.37,-35.551,-0.55
16.4,-38.921,-0.894
16.44,-38.184,0.149
16.47,-27.62,1.478
16.5,-15.161,1.386
16.53,-5.545,0.951
16.57,1.228,0.71
16.6,5.159,0.367
16.63,5.791,-0.034
16.66,5.019,0.034
16.7,5.58,0.275
16.73,7.581,0.355
16.76,10.739,0.561
16.79,15.652,0.722
16.83,19.969,0.538
16.86,23.303,0.561
16.89,27.129,0.664
16.92,31.024,0.722
16.96,34.534,0.733
16.99,37.587,0.756
17.02,40.359,0.882
17.05,43.483,0.985
17.09,46.747,0.985
17.12,49.94,0.985
17.15,53.45,1.031
17.18,57.626,0.997
17.22,61.592,0.871
17.25,64.716,0.859
17.28,67.979,0.928
17.31,71.524,0.951
17.35,74.648,0.951
17.38,77.806,1.042
17.41,81.667,1.134
17.45,85.527,1.18
17.48,89.037,1.249
17.51,92.651,1.375
17.54,96.442,1.352
17.58,99.846,1.294
17.61,102.899,1.386
17.64,105.988,1.524
17.67,109.497,1.615
17.71,113.287,1.615
17.74,116.867,1.604
17.77,119.991,1.707
17.8,123.219,1.81
17.84,126.694,1.799
17.87,129.607,1.776
17.9,132.484,1.947
17.93,135.959,2.131
17.97,139.854,2.257
18.0,143.925,2.406
18.03,147.681,2.383
18.06,149.962,2.268
18.1,151.576,2.394
18.13,154.349,2.543
18.16,158.139,2.577
18.19,161.613,2.543
18.23,164.667,2.692
18.26,168.457,2.887
18.29,171.931,2.681
18.32,173.581,2.589
18.36,175.616,2.933
18.39,179.161,3.116
18.42,182.285,3.104
18.45,185.373,3.173
18.49,188.637,3.242
18.52,191.199,3.345
18.55,193.445,3.551
18.58,196.007,3.712
18.62,198.288,3.769
18.65,200.534,3.906
18.68,202.956,3.975
18.71,205.693,3.998
18.75,208.22,3.964
18.78,210.291,4.032
18.81,212.502,4.158
18.84,214.993,4.284
18.88,216.678,4.319
18.91,218.222,4.536
18.94,220.714,4.697
18.97,223.381,4.766
19.01,225.978,4.811
19.04,228.119,4.892
19.07,230.365,5.052
19.1,232.997,5.121
19.14,234.857,4.949
19.17,236.507,4.972
19.2,238.788,5.04
19.24,240.648,5.052
19.27,242.648,5.109
19.3,244.719,5.052
19.33,246.439,5.121
19.37,248.72,5.281
19.4,250.334,5.189
19.43,251.773,5.235
19.46,253.809,5.166
19.5,255.037,5.189
19.53,256.967,5.292
19.56,258.441,5.201
19.59,260.056,5.281
19.63,262.056,5.281
19.66,262.968,5.235
19.69,264.197,5.35
19.72,266.267,5.35
19.76,267.847,5.292
19.79,269.145,5.373
19.82,270.654,5.441
19.85,272.128,5.464
19.89,273.497,5.407
19.92,274.164,5.292
19.95,274.866,5.304
19.98,276.024,5.315
20.02,277.428,5.35
20.05,279.007,5.384
20.08,280.376,5.487
20.11,281.85,5.625
20.15,283.429,5.705
20.18,284.552,5.625
20.21,285.5,5.567
20.24,286.482,5.522
20.28,287.465,5.522
20.31,288.588,5.522
20.34,289.886,5.51
20.37,290.939,5.522
20.41,291.641,5.556
20.44,292.168,5.51
20.47,292.659,5.43
20.5,293.01,5.304
20.54,293.185,5.281
20.57,293.782,5.327
20.6,294.589,5.373
20.63,295.116,5.35
20.67,295.291,5.338
20.7,295.502,5.35
20.73,295.712,5.338
20.76,295.537,5.178
20.8,295.081,5.109
20.83,295.572,5.155
20.86,295.993,5.166
20.89,295.818,5.189
20.93,295.853,5.212
20.96,295.958,5.144
20.99,295.642,5.144
21.03,295.677,5.166
21.06,295.256,5.052
21.09,295.326,5.109
21.12,295.712,5.063
21.16,295.186,5.063
21.19,294.519,5.018
21.22,293.607,4.846
21.25,292.554,4.685
21.29,291.325,4.559
21.32,290.308,4.571
21.35,289.992,4.617
21.38,289.29,4.559
21.42,287.991,4.548
21.45,287.044,4.582
21.48,285.921,4.536
21.51,284.657,4.456
21.55,283.464,4.33
21.58,282.201,4.296
21.61,281.183,4.33
21.64,280.13,4.319
21.68,278.691,4.25
21.71,277.217,4.147
21.74,275.533,4.078
21.77,273.953,4.067
21.81,272.585,4.021
21.84,271.251,3.941
21.87,269.531,3.872
21.9,267.882,3.895
21.94,266.689,3.987
21.97,265.636,3.929
22.0,263.916,3.815
22.03,261.845,3.757
22.07,260.161,3.757
22.1,258.862,3.746
22.13,257.248,3.597
22.16,255.739,3.62
22.2,254.37,3.597
22.23,252.089,3.505
22.26,249.843,3.414
22.29,247.913,3.253
22.33,246.158,3.23
22.36,244.193,3.185
22.39,242.192,3.219
22.42,240.472,3.116
22.46,238.332,3.036
22.49,236.682,3.093
22.52,234.857,3.059
22.55,232.646,3.001
22.59,230.856,2.933
22.62,228.961,2.83
22.65,226.75,2.784
22.69,224.75,2.807
22.72,223.206,2.818
22.75,220.959,2.692
22.78,218.152,2.566
22.82,215.555,2.52
22.85,213.098,2.532
22.88,210.326,2.589
22.91,208.15,2.669
22.95,206.535,2.543
22.98,204.184,2.406
23.01,200.955,2.406
23.04,197.691,2.486
23.08,195.059,2.451
23.11,192.392,2.291
23.14,189.374,2.291
23.17,186.742,2.497
23.21,184.671,2.429
23.24,182.109,2.188
23.27,178.74,2.062
23.3,175.652,2.062
23.34,172.984,2.028
23.37,170.107,1.867
23.4,166.913,1.764
23.43,163.93,1.741
23.47,161.087,1.695
23.5,157.893,1.466
23.53,153.506,1.214
23.56,149.435,1.329
23.6,146.663,1.352
23.63,143.434,1.249
23.66,140.521,1.329
23.69,138.1,1.203
23.73,135.222,1.146
23.76,131.958,1.042
23.79,128.098,1.02
23.82,125.255,1.1
23.86,122.447,0.894
23.89,118.411,0.733
23.92,114.375,0.813
23.95,111.427,0.951
23.99,108.795,0.722
24.02,104.338,0.481
24.05,100.197,0.642
24.08,96.933,0.619
24.12,92.932,0.389
24.15,88.475,0.424
24.18,85.211,0.619
24.21,82.825,0.584
24.25,79.912,0.389
24.28,76.543,0.412
24.31,73.349,0.47
24.34,70.19,0.412
24.38,66.716,0.309
24.41,63.171,0.309
24.44,59.486,0.367
24.48,56.223,0.401
24.51,52.748,0.332
24.54,49.203,0.298
24.57,45.518,0.206
24.61,41.939,0.103
24.64,38.148,-0.057
24.67,35.025,0.16
24.7,36.569,0.928
24.74,41.342,0.974
24.77,38.394,-0.607
24.8,26.216,-1.524
24.83,14.214,-1.249
24.87,4.913,-0.951
24.9,-1.965,-0.699
24.93,-5.475,-0.263
24.96,-5.721,0.069
25.0,-5.124,-0.023
25.03,-5.65,-0.195
25.06,-7.475,-0.378
25.09,-11.441,-0.687
25.13,-16.951,-0.745
25.16,-21.268,-0.515
25.19,-24.461,-0.493
25.22,-28.111,-0.619
25.26,-31.902,-0.71
25.29,-35.13,-0.745
25.32,-37.833,-0.768
25.35,-40.851,-0.859
25.39,-43.764,-0.916
25.42,-46.782,-0.939
25.45,-50.116,-0.928
25.48,-53.59,-0.985
25.52,-57.591,-1.042
25.55,-61.732,-0.939
25.58,-65.067,-0.779
25.61,-67.909,-0.848
25.65,-71.103,-0.894
25.68,-74.472,-0.939
25.71,-77.631,-0.997
25.74,-81.21,-1.18
25.78,-85.422,-1.226
25.81,-89.352,-1.191
25.84,-92.897,-1.26
25.87,-96.231,-1.375
25.91,-99.706,-1.409
25.94,-103.145,-1.363
25.97,-106.128,-1.363
26.0,-109.181,-1.524
26.04,-112.796,-1.707
26.07,-116.797,-1.707
26.1,-120.482,-1.661
26.13,-123.676,-1.695
26.17,-126.799,-1.844
26.2,-130.168,-1.913
26.23,-133.467,-1.947
26.27,-136.766,-2.096
26.3,-140.521,-2.314
26.33,-144.452,-2.406
26.36,-148.102,-2.44
26.4,-151.015,-2.303
26.43,-153.331,-2.303
26.46,-156.174,-2.589
26.49,-159.683,-2.692
26.53,-162.947,-2.543
26.56,-165.93,-2.566
26.59,-169.194,-2.692
26.62,-171.651,-2.692
26.66,-174.142,-2.807
26.69,-176.634,-2.83
26.72,-179.266,-2.99
26.75,-182.39,-3.162
26.79,-185.794,-3.322
26.82,-190.356,-3.551
26.85,-194.638,-3.563
26.88,-197.025,-3.757
26.92,-200.008,-4.067
26.95,-203.131,-4.044
26.98,-204.921,-3.861
27.01,-206.5,-3.929
27.05,-209.132,-4.021
27.08,-211.624,-3.998
27.11,-213.274,-4.044
27.14,-214.642,-4.204
27.18,-216.292,-4.319
27.21,-217.906,-4.319
27.24,-219.275,-4.261
27.27,-220.819,-4.319
27.31,-222.504,-4.456
27.34,-224.364,-4.525
27.37,-226.224,-4.571
27.4,-228.224,-4.639
27.44,-229.944,-4.731
27.47,-231.909,-4.903
27.5,-234.085,-4.926
27.53,-236.296,-4.983
27.57,-238.788,-5.086
27.6,-240.543,-5.121
27.63,-242.262,-5.189
27.66,-244.719,-5.178
27.7,-246.474,-5.063
27.73,-247.983,-5.144
27.76,-250.159,-5.235
27.79,-252.299,-5.224
27.83,-253.984,-5.189
27.86,-255.458,-5.212
27.89,-257.213,-5.292
27.93,-259.143,-5.361
27.96,-260.933,-5.304
27.99,-262.442,-5.292
28.02,-264.021,-5.327
28.06,-265.601,-5.384
28.09,-267.18,-5.384
28.12,-268.654,-5.338
28.15,-269.987,-5.338
28.19,-271.637,-5.441
28.22,-273.251,-5.464
28.25,-274.199,-5.373
28.28,-275.146,-5.338
28.32,-276.34,-5.315
28.35,-277.568,-5.396
28.38,-279.077,-5.441
28.41,-280.411,-5.453
28.45,-281.709,-5.487
28.48,-282.903,-5.556
28.51,-284.131,-5.602
28.54,-285.324,-5.567
28.58,-286.412,-5.499
28.61,-287.325,-5.476
28.64,-288.272,-5.499
28.67,-289.29,-5.51
28.71,-290.378,-5.499
28.74,-291.255,-5.441
28.77,-291.817,-5.453
28.8,-292.448,-5.453
28.84,-292.834,-5.384
28.87,-293.115,-5.27
28.9,-293.642,-5.292
28.93,-294.168,-5.292
28.97,-294.449,-5.315
29.0,-294.765,-5.27
29.03,-295.221,-5.292
29.06,-295.502,-5.292
29.1,-295.361,-5.235
29.13,-295.01,-5.178
29.16,-295.502,-5.201
29.19,-295.993,-5.132
29.23,-295.888,-5.212
29.26,-295.467,-5.086
29.29,-294.203,-4.949
29.32,-293.501,-4.743
29.36,-291.396,-4.422
29.39,-290.237,-4.559
29.42,-290.659,-4.605
29.45,-290.413,-4.628
29.49,-289.606,-4.72
29.52,-289.43,-4.949
29.55,-289.992,-5.098
29.58,-290.343,-5.121
29.62,-290.132,-5.086
29.65,-290.237,-5.121
29.68,-290.659,-5.155
29.72,-290.729,-5.109
29.75,-290.448,-4.995
29.78,-289.886,-4.834
29.81,-288.693,-4.651
29.85,-287.395,-4.559
29.88,-286.307,-4.399
29.91,-285.008,-4.261
29.94,-283.745,-4.204
29.98,-282.271,-4.204
30.01,-280.867,-4.204
30.04,-279.393,-4.124
30.07,-277.463,-3.987
30.11,-275.287,-3.918
30.14,-273.567,-3.883
30.17,-271.883,-3.838
30.2,-270.374,-3.792
30.24,-268.619,-3.769
30.27,-266.794,-3.803
30.3,-265.215,-3.838
30.33,-263.425,-3.723
30.37,-261.319,-3.608
30.4,-259.705,-3.62
30.43,-257.985,-3.586
30.46,-256.265,-3.608
30.5,-254.51,-3.482
30.53,-252.405,-3.391
30.56,-250.72,-3.425
30.59,-248.825,-3.345
30.63,-246.544,-3.288
30.66,-245.0,-3.253
30.69,-243.385,-3.15
30.72,-241.034,-3.116
30.76,-238.858,-3.15
30.79,-237.489,-3.116
30.82,-235.699,-2.944
30.85,-233.418,-2.956
30.89,-231.453,-2.933
30.92,-229.277,-2.864
30.95,-228.049,-2.956
30.98,-226.785,-2.852
31.02,-224.364,-2.772
31.05,-222.328,-2.83
31.08,-220.749,-2.772
31.11,-218.152,-2.577
31.15,-215.45,-2.6
31.18,-213.765,-2.577
31.21,-211.273,-2.44
31.24,-207.974,-2.486
31.28,-205.623,-2.658
31.31,-204.008,-2.509
31.34,-201.517,-2.291
31.37,-198.077,-2.348
31.41,-194.989,-2.509
31.44,-192.322,-2.371
31.47,-189.198,-2.199
31.51,-186.18,-2.28
31.54,-183.759,-2.394
31.57,-181.477,-2.291
31.6,-178.775,-2.131
31.64,-175.932,-2.051
31.67,-173.055,-1.97
31.7,-169.931,-1.844
31.73,-166.737,-1.81
31.77,-164.175,-1.81
31.8,-161.649,-1.695
31.83,-158.35,-1.501
31.86,-154.454,-1.352
31.9,-150.418,-1.226
31.93,-146.663,-1.203
31.96,-143.539,-1.249
31.99,-140.276,-1.191
32.03,-137.468,-1.306
32.06,-135.292,-1.168
32.09,-131.467,-0.871
32.12,-127.887,-1.054
32.16,-125.255,-1.1
32.19,-122.377,-0.951
32.22,-118.552,-0.71
32.25,-114.551,-0.768
32.29,-111.708,-0.905
32.32,-108.62,-0.722
32.35,-104.338,-0.493
32.38,-100.232,-0.584
32.42,-96.793,-0.584
32.45,-93.178,-0.458
32.48,-89.037,-0.401
32.51,-85.527,-0.504
32.55,-82.509,-0.515
32.58,-79.491,-0.447
32.61,-76.472,-0.412
32.64,-73.489,-0.389
32.68,-69.91,-0.309
32.71,-65.979,-0.332
32.74,-62.575,-0.332
32.77,-58.96,-0.241
32.81,-55.029,-0.309
32.84,-51.73,-0.332
32.87,-48.256,-0.241
32.9,-44.571,-0.183
32.94,-40.816,-0.057
32.97,-36.885,0.092
33.0,-34.042,-0.046
33.03,-33.972,-0.527
33.07,-37.482,-0.939
33.1,-36.885,0.229
33.13,-26.427,1.524
33.17,-14.635,1.226
33.2,-6.212,0.871
33.23,0.737,0.802
33.26,5.194,0.389
33.3,5.861,0.0
33.33,5.65,0.115
33.36,6.844,0.309
33.39,9.125,0.401
33.43,13.02,0.687
33.46,18.425,0.733
33.49,21.829,0.367
33.52,24.251,0.504
33.56,28.497,0.779
33.59,32.709,0.687
33.62,35.376,0.653
33.65,37.692,0.768
33.69,40.219,0.848
33.72,42.992,0.916
33.75,46.01,0.997
33.78,49.765,1.077
33.82,54.047,1.02
33.85,58.153,0.985
33.88,61.768,0.951
33.91,65.137,0.859
33.95,68.155,0.848
33.98,71.278,0.962
34.01,74.823,0.974
34.04,78.227,0.997
34.08,81.737,1.123
34.11,85.527,1.294
34.14,89.668,1.306
34.17,93.459,1.26
34.21,96.652,1.249
34.24,99.6,1.386
34.27,102.969,1.489
34.3,106.339,1.443
34.34,109.392,1.42
34.37,112.515,1.604
34.4,116.13,1.741
34.43,119.85,1.776
34.47,123.325,1.695
34.5,126.237,1.718
34.53,129.291,1.902
34.56,132.87,2.051
34.6,136.555,2.085
34.63,139.995,2.245
34.66,144.031,2.463
34.69,147.926,2.497
34.73,150.699,2.394
34.76,153.471,2.474
34.79,157.332,2.577
34.82,160.069,2.429
34.86,162.14,2.646
34.89,165.72,2.795
34.92,169.37,2.669
34.96,171.756,2.623
34.99,174.318,2.91
35.02,177.512,2.967
35.05,180.109,2.978
35.09,182.811,3.024
35.12,185.478,3.139
35.15,188.321,3.334
35.18,191.304,3.402
35.22,193.655,3.494
35.25,195.901,3.723
35.28,198.499,3.872
35.31,201.06,3.918
35.35,203.271,3.872
35.38,205.447,3.906
35.41,208.009,3.998
35.44,210.501,4.055
35.48,212.747,4.135
35.51,214.818,4.342
35.54,216.608,4.491
35.57,218.608,4.594
35.61,221.17,4.651
35.64,223.732,4.731
35.67,225.908,4.869
35.7,228.049,4.949
35.74,230.47,4.995
35.77,233.138,5.018
35.8,234.682,4.914
35.83,236.05,5.029
35.87,238.577,5.063
35.9,240.578,4.972
35.93,242.368,4.995
35.96,244.017,5.075
36.0,245.877,5.166
36.03,248.193,5.201
36.06,249.773,5.098
36.09,251.071,5.121
36.13,252.791,5.189
36.16,254.651,5.224
36.19,256.581,5.247
36.22,258.406,5.258
36.26,260.02,5.338
36.29,261.74,5.418
36.32,263.249,5.361
36.35,264.548,5.315
36.39,266.267,5.327
36.42,267.776,5.361
36.45,269.215,5.418
36.48,270.83,5.43
36.52,272.339,5.407
36.55,273.602,5.396
36.58,274.094,5.338
36.61,274.866,5.315
36.65,276.129,5.235
36.68,277.533,5.304
36.71,279.007,5.418
36.75,280.446,5.556
36.78,281.955,5.625
36.81,283.464,5.636
36.84,284.517,5.602
36.88,285.429,5.613
36.91,286.517,5.579
36.94,287.675,5.51
36.97,288.693,5.476
37.01,289.886,5.544
37.04,290.904,5.579
37.07,291.676,5.556
37.1,292.203,5.464
37.14,292.694,5.407
37.17,293.08,5.35
37.2,293.185,5.304
37.23,293.677,5.281
37.27,294.344,5.281
37.3,294.695,5.281
37.33,294.87,5.35
37.36,295.151,5.361
37.4,295.537,5.304
37.43,295.396,5.166
37.46,295.045,5.178
37.49,295.537,5.235
37.53,295.993,5.212
37.56,296.028,5.178
37.59,296.028,5.212
37.62,295.888,5.166
37.66,295.537,5.178
37.69,295.923,5.155
37.72,295.467,4.983
37.75,295.186,5.109
37.79,295.537,5.109
37.82,295.256,5.052
37.85,294.554,4.949
37.88,293.607,4.834
37.92,292.624,4.731
37.95,291.396,4.617
37.98,290.343,4.548
38.01,289.851,4.525
38.05,288.974,4.513
38.08,287.851,4.582
38.11,287.079,4.617
38.14,285.991,4.491
38.18,284.377,4.376
38.21,282.938,4.33
38.24,281.815,4.319
38.27,281.007,4.307
38.31,280.025,4.25
38.34,278.586,4.239
38.37,277.147,4.239
38.41,275.497,4.147
38.44,273.778,4.032
38.47,272.304,3.929
38.5,270.76,3.895
38.54,269.145,3.906
38.57,267.636,3.918
38.6,266.408,3.872
38.63,264.969,3.826
38.67,263.039,3.803
38.7,261.143,3.78
38.73,259.81,3.757
38.76,258.511,3.643
38.8,256.511,3.54
38.83,254.581,3.62
38.86,253.563,3.631
38.89,251.878,3.482
38.93,249.597,3.356
38.96,247.351,3.311
38.99,245.667,3.345
39.02,244.017,3.253
39.06,242.192,3.15
39.09,240.121,3.059
39.12,237.77,3.082
39.15,236.436,3.185
39.19,234.857,3.024
39.22,232.611,2.944
39.25,230.716,2.956
39.28,228.821,2.91
39.32,226.75,2.841
39.35,224.68,2.784
39.38,222.96,2.807
39.41,220.995,2.669
39.45,218.047,2.52
39.48,215.134,2.555
39.51,212.642,2.669
39.54,210.677,2.6
39.58,208.711,2.497
39.61,206.325,2.451
39.64,203.412,2.543
39.67,200.815,2.543
39.71,198.323,2.394
39.74,195.41,2.28
39.77,192.146,2.337
39.8,189.093,2.463
39.84,186.917,2.474
39.87,184.846,2.28
39.9,181.898,2.188
39.93,178.915,2.188
39.97,176.073,2.051
40.0,172.984,1.925
40.03,169.861,1.821
40.06,166.772,1.821
40.1,164.035,1.81
40.13,161.403,1.661
40.16,157.928,1.443
40.2,153.542,1.306
40.23,149.892,1.398
40.26,147.049,1.386
40.29,144.031,1.249
40.33,141.118,1.226
40.36,138.029,1.157
40.39,134.976,1.214
40.42,132.063,1.123
40.46,128.519,0.939
40.49,125.255,1.008
40.52,122.377,0.951
40.55,118.552,0.836
40.59,114.481,0.779
40.62,111.603,0.871
40.65,108.725,0.722
40.68,104.443,0.538
40.72,100.267,0.63
40.75,96.968,0.596
40.78,92.792,0.378
40.81,88.51,0.481
40.85,85.667,0.596
40.88,83.0,0.481
40.91,79.596,0.412
40.94,76.402,0.515
40.98,73.63,0.481
41.01,70.576,0.321
41.04,66.646,0.275
41.07,62.996,0.412
41.11,59.627,0.401
41.14,56.187,0.298
41.17,52.292,0.286
41.2,49.063,0.332
41.24,45.764,0.172
41.27,41.833,0.08
41.3,37.727,-0.023
41.33,34.779,0.149
41.37,36.008,0.779
41.4,40.43,0.939
41.43,38.008,-0.458
41.46,26.357,-1.466
41.5,14.529,-1.272
41.53,5.124,-0.951
41.56,-1.685,-0.699
41.59,-5.405,-0.309
41.63,-5.791,0.057
41.66,-5.159,-0.023
41.69,-5.58,-0.195
41.72,-7.616,-0.424
41.76,-11.792,-0.676
41.79,-17.197,-0.71
41.82,-21.443,-0.527
41.85,-24.918,-0.55
41.89,-28.603,-0.653
41.92,-32.498,-0.79
41.95,-36.078,-0.745
41.99,-38.289,-0.63
42.02,-40.395,-0.836
42.05,-43.448,-0.962
42.08,-46.431,-0.916
42.12,-49.344,-0.974
42.15,-53.345,-1.123
42.18,-58.012,-0.985
42.21,-61.697,-0.79
42.25,-64.54,-0.79
42.28,-67.804,-0.939
42.31,-71.208,-0.882
42.34,-73.981,-0.882
42.38,-77.139,-1.054
42.41,-81.351,-1.168
42.44,-85.492,-1.157
42.47,-88.931,-1.203
42.51,-92.511,-1.386
42.54,-96.547,-1.409
42.57,-100.056,-1.272
42.6,-102.829,-1.294
42.64,-105.847,-1.512
42.67,-109.567,-1.65
42.7,-113.428,-1.581
42.73,-116.832,-1.581
42.77,-120.271,-1.73
42.8,-123.781,-1.844
42.83,-127.396,-1.821
42.86,-130.238,-1.753
42.9,-132.941,-1.947
42.93,-136.766,-2.199
42.96,-141.013,-2.28
42.99,-144.698,-2.337
43.03,-148.277,-2.394
43.06,-150.98,-2.28
43.09,-152.84,-2.44
43.12,-156.209,-2.681
43.16,-160.21,-2.566
43.19,-163.193,-2.451
43.22,-165.755,-2.635
43.25,-169.194,-2.83
43.29,-171.896,-2.6
43.32,-173.721,-2.681
43.35,-176.389,-2.933
43.38,-179.477,-3.059
43.42,-182.425,-3.104
43.45,-185.233,-3.104
43.48,-188.637,-3.276
43.51,-192.111,-3.46
43.55,-194.603,-3.597
43.58,-197.165,-3.803
43.61,-199.832,-3.872
43.65,-201.973,-3.883
43.68,-203.973,-3.952
43.71,-206.57,-3.987
43.74,-209.308,-3.952
43.78,-211.273,-4.009
43.81,-213.063,-4.135
43.84,-215.204,-4.216
43.87,-216.994,-4.284
43.91,-218.468,-4.399
43.94,-220.433,-4.582
43.97,-222.89,-4.651
44.0,-225.101,-4.639
44.04,-226.891,-4.72
44.07,-229.172,-4.88
44.1,-231.523,-4.937
44.13,-233.875,-5.006
44.17,-236.086,-4.972
44.2,-237.875,-5.063
44.23,-240.227,-5.178
44.26,-242.297,-5.132
44.3,-244.157,-5.132
44.33,-246.474,-5.155
44.36,-248.158,-5.155
44.39,-249.597,-5.189
44.43,-251.387,-5.132
44.46,-253.107,-5.098
44.49,-254.861,-5.155
44.52,-256.476,-5.212
44.56,-258.266,-5.304
44.59,-260.266,-5.304
44.62,-261.67,-5.235
44.65,-262.723,-5.292
44.69,-264.337,-5.338
44.72,-266.092,-5.327
44.75,-267.601,-5.292
44.78,-268.864,-5.292
44.82,-270.023,-5.361
44.85,-271.848,-5.453
44.88,-273.286,-5.361
44.91,-273.918,-5.27
44.95,-274.62,-5.258
44.98,-275.638,-5.27
45.01,-276.936,-5.315
45.04,-278.41,-5.338
45.08,-279.779,-5.407
45.11,-281.148,-5.522
45.14,-282.446,-5.602
45.17,-283.675,-5.59
45.21,-284.868,-5.533
45.24,-285.851,-5.51
45.27,-286.763,-5.51
45.3,-287.921,-5.533
45.34,-289.114,-5.476
45.37,-290.202,-5.487
45.4,-290.869,-5.476
45.44,-291.536,-5.487
45.47,-292.273,-5.441
45.5,-292.694,-5.327
45.53,-292.87,-5.27
45.57,-293.396,-5.327
45.6,-294.063,-5.315
45.63,-294.519,-5.304
45.66,-294.8,-5.27
45.7,-295.116,-5.327
45.73,-295.432,-5.315
45.76,-295.326,-5.224
45.79,-295.081,-5.132
45.83,-295.467,-5.166
45.86,-295.888,-5.144
45.89,-295.677,-5.189
45.92,-295.396,-5.086
45.96,-295.221,-5.109
45.99,-295.607,-5.063
46.02,-293.747,-4.777
46.05,-292.975,-4.949
46.09,-294.379,-4.949
46.12,-294.484,-4.949
46.15,-293.817,-5.04
46.18,-293.326,-5.063
46.22,-293.08,-5.006
46.25,-292.624,-4.869
46.28,-291.711,-4.743
46.31,-290.904,-4.731
46.35,-290.553,-4.731
46.38,-289.992,-4.651
46.41,-289.044,-4.594
46.44,-288.097,-4.582
46.48,-286.763,-4.479
46.51,-285.219,-4.399
46.54,-283.92,-4.261
46.57,-282.411,-4.147
46.61,-281.078,-4.17
46.64,-279.744,-4.181
46.67,-278.445,-4.158
46.7,-277.077,-4.09
46.74,-275.252,-3.998
46.77,-273.181,-3.975
46.8,-271.672,-3.952
46.83,-270.514,-3.883
46.87,-269.075,-3.838
46.9,-267.32,-3.849
46.93,-265.846,-3.918
46.96,-264.688,-3.906
47.0,-263.039,-3.746
47.03,-260.898,-3.689
47.06,-259.494,-3.723
47.09,-257.95,-3.654
47.13,-256.406,-3.631
47.16,-255.072,-3.563
47.19,-253.107,-3.494
47.23,-251.422,-3.563
47.26,-249.843,-3.471
47.29,-247.913,-3.334
47.32,-246.123,-3.265
47.36,-244.333,-3.253
47.39,-242.157,-3.185
47.42,-239.876,-3.116
47.45,-238.753,-3.127
47.49,-237.103,-2.978
47.52,-234.401,-2.978
47.55,-232.33,-3.001
47.58,-230.891,-2.898
47.62,-228.891,-2.784
47.65,-226.645,-2.761
47.68,-224.644,-2.749
47.71,-222.469,-2.692
47.75,-220.117,-2.681
47.78,-217.766,-2.612
47.81,-215.414,-2.52
47.84,-212.888,-2.463
47.88,-210.045,-2.509
47.91,-207.658,-2.658
47.94,-206.149,-2.589
47.97,-204.044,-2.371
48.01,-200.815,-2.314
48.04,-197.305,-2.44
48.07,-194.638,-2.509
48.1,-192.146,-2.291
48.14,-188.882,-2.188
48.17,-186.005,-2.417
48.2,-184.25,-2.474
48.23,-182.004,-2.222
48.27,-178.705,-2.039
48.3,-175.687,-2.051
48.33,-173.019,-1.982
48.36,-169.896,-1.844
48.4,-166.772,-1.776
48.43,-164.035,-1.753
48.46,-161.368,-1.673
48.49,-158.069,-1.478
48.53,-154.068,-1.272
48.56,-149.962,-1.226
48.59,-146.593,-1.272
48.62,-143.61,-1.283
48.66,-140.591,-1.249
48.69,-138.17,-1.283
48.72,-135.924,-1.146
48.75,-131.818,-0.859
48.79,-127.852,-1.042
48.82,-125.114,-1.111
48.85,-122.447,-0.916
48.89,-118.481,-0.687
48.92,-114.481,-0.813
48.95,-111.568,-0.916
48.98,-108.549,-0.676
49.02,-104.022,-0.435
49.05,-99.706,-0.584
49.08,-96.371,-0.584
49.11,-92.616,-0.447
49.15,-88.721,-0.424
49.18,-85.422,-0.573
49.21,-82.684,-0.527
49.24,-79.561,-0.367
49.28,-76.122,-0.378
49.31,-73.068,-0.458
49.34,-69.804,-0.355
49.37,-66.084,-0.286
49.41,-62.505,-0.252
49.44,-58.679,-0.286
49.47,-55.099,-0.355
49.5,-51.765,-0.309
49.54,-48.186,-0.252
49.57,-44.571,-0.195
49.6,-40.886,0.0
49.63,-36.815,0.103
49.67,-34.288,-0.172
49.7,-35.306,-0.71
49.73,-38.815,-0.825
49.76,-36.499,0.493
49.8,-25.198,1.535
49.83,-13.582,1.203
49.86,-5.019,0.905
49.89,1.79,0.733
49.93,5.44,0.309
49.96,5.685,-0.057
49.99,5.159,0.092
50.02,6.071,0.275
50.06,8.142,0.412
50.09,11.967,0.687
50.12,17.548,0.779
50.15,21.548,0.435
50.19,23.9,0.424
50.22,27.69,0.722
50.25,31.937,0.699
50.28,34.744,0.687
50.32,37.236,0.802
50.35,40.079,0.836
50.38,42.992,0.928
50.41,46.361,1.042
50.45,50.256,1.008
50.48,54.012,0.962
50.51,57.837,1.065
50.54,62.189,1.02
50.58,65.874,0.825
50.61,68.541,0.836
50.64,71.875,0.962
50.68,75.595,0.985
50.71,78.929,0.997
50.74,82.193,1.157
50.77,86.124,1.283
50.81,90.16,1.237
50.84,93.529,1.214
50.87,96.582,1.329
50.9,99.951,1.466
50.94,103.636,1.455
50.97,106.725,1.363
51.0,109.392,1.432
51.03,112.656,1.684
51.07,116.692,1.787
51.1,120.482,1.707
51.13,123.57,1.661
51.16,126.378,1.787
51.2,129.607,1.959
51.23,133.292,2.016
51.26,136.555,2.028
51.29,139.749,2.28
51.33,144.031,2.509
51.36,147.961,2.486
51.39,150.839,2.348
51.42,153.506,2.36
51.46,156.665,2.543
51.49,159.262,2.532
51.52,162.14,2.692
51.55,165.965,2.681
51.59,169.159,2.6
51.62,171.405,2.681
51.65,174.142,2.887
51.68,177.266,2.921
51.72,179.898,2.967
51.75,182.635,3.059
51.78,185.408,3.219
51.81,188.567,3.356
51.85,191.62,3.356
51.88,193.831,3.494
51.91,196.217,3.757
51.94,198.639,3.815
51.98,200.85,3.826
52.01,202.921,3.838
52.04,205.447,3.964
52.07,208.255,4.032
52.11,210.747,4.055
52.14,212.607,4.135
52.17,214.783,4.399
52.2,216.924,4.456
52.24,218.784,4.525
52.27,221.135,4.605
52.3,223.521,4.754
52.34,226.013,4.914
52.37,228.4,4.937
52.4,230.681,4.949
52.43,233.032,5.018
52.47,234.682,4.96
52.5,236.156,5.018
52.53,238.718,5.018
52.56,240.613,4.926
52.6,242.473,5.075
52.63,244.438,5.121
52.66,246.333,5.189
52.69,248.053,5.075
52.73,249.492,5.121
52.76,251.527,5.178
52.79,252.791,5.132
52.82,254.897,5.292
52.86,257.143,5.224
52.89,258.371,5.247
52.92,260.126,5.418
52.95,262.337,5.441
52.99,263.635,5.304
53.02,264.618,5.281
53.05,266.338,5.338
53.08,267.952,5.35
53.12,269.426,5.384
53.15,270.97,5.373
53.18,272.374,5.384
53.21,273.497,5.407
53.25,274.199,5.327
53.28,275.041,5.281
53.31,276.199,5.224
53.34,277.533,5.315
53.38,278.972,5.441
53.41,280.481,5.544
53.44,282.06,5.59
53.47,283.569,5.636
53.51,284.657,5.648
53.54,285.605,5.636
53.57,286.623,5.544
53.6,287.605,5.453
53.64,288.553,5.453
53.67,289.746,5.544
53.7,290.939,5.556
53.73,291.676,5.51
53.77,292.308,5.464
53.8,292.729,5.441
53.83,293.115,5.384
53.86,293.326,5.315
53.9,293.852,5.281
53.93,294.484,5.292
53.96,294.87,5.315
53.99,295.081,5.361
54.03,295.537,5.338
54.06,295.923,5.292
54.09,295.537,5.155
54.13,294.765,5.132
54.16,295.572,5.235
54.19,296.274,5.132
54.22,295.923,5.132
54.26,295.642,5.178
54.29,295.396,5.132
54.32,295.326,5.098
54.35,295.712,5.098
54.39,295.221,4.972
54.42,294.905,5.121
54.45,295.361,5.121
54.48,295.186,5.063
54.52,294.379,4.914
54.55,293.115,4.811
54.58,292.133,4.708
54.61,291.115,4.571
54.65,290.027,4.456
54.68,289.29,4.502
54.71,288.553,4.536
54.74,287.465,4.582
54.78,286.833,4.594
54.81,285.815,4.468
54.84,284.271,4.433
54.87,283.078,4.422
54.91,282.095,4.353
54.94,281.042,4.273
54.97,279.779,4.204
55.0,278.305,4.227
55.04,277.077,4.239
55.07,275.533,4.09
55.1,273.672,3.987
55.13,272.128,3.941
55.17,270.689,3.964
55.2,269.391,3.964
55.23,267.847,3.861
55.26,266.267,3.849
55.3,264.793,3.861
55.33,263.144,3.838
55.36,261.284,3.757
55.39,259.915,3.712
55.43,258.617,3.654
55.46,256.686,3.608
55.49,254.861,3.643
55.52,253.703,3.597
55.56,251.913,3.414
55.59,249.422,3.345
55.62,247.386,3.356
55.65,245.982,3.334
55.69,244.368,3.196
55.72,242.297,3.173
55.75,240.332,3.173
55.78,238.297,3.15
55.82,236.998,3.185
55.85,235.384,3.001
55.88,232.857,2.933
55.92,230.856,2.967
55.95,229.242,2.933
55.98,227.206,2.784
56.01,224.855,2.738
56.05,223.03,2.738
56.08,220.854,2.612
56.11,218.047,2.532
56.14,215.099,2.612
56.18,213.028,2.658
56.21,210.852,2.463
56.24,208.115,2.429
56.27,205.447,2.577
56.31,203.412,2.669
56.34,201.376,2.44
56.37,198.288,2.234
56.4,194.849,2.337
56.44,191.83,2.474
56.47,189.163,2.429
56.5,186.917,2.348
56.53,184.496,2.268
56.57,181.758,2.257
56.6,179.161,2.188
56.63,176.213,1.97
56.66,172.809,1.879
56.7,169.545,1.856
56.73,166.492,1.833
56.76,164.035,1.81
56.79,161.473,1.661
56.83,157.999,1.501
56.86,153.752,1.294
56.89,150.032,1.409
56.92,147.47,1.375
56.96,144.101,1.134
56.99,140.907,1.26
57.02,138.275,1.226
57.05,135.117,1.18
57.09,131.853,1.008
57.12,127.992,0.905
57.15,124.904,1.065
57.18,122.131,1.008
57.22,118.411,0.813
57.25,114.305,0.71
57.28,111.111,0.848
57.31,108.128,0.71
57.35,103.741,0.538
57.38,99.776,0.607
57.41,96.407,0.561
57.44,92.3,0.424
57.48,88.44,0.493
57.51,85.457,0.55
57.54,82.614,0.504
57.58,79.456,0.47
57.61,76.402,0.515
57.64,73.595,0.424
57.67,70.19,0.298
57.71,66.26,0.332
57.74,62.82,0.435
57.77,59.627,0.355
57.8,56.117,0.275
57.84,52.292,0.321
57.87,49.063,0.309
57.9,45.413,0.126
57.93,41.377,0.115
57.97,37.622,0.023
58.0,34.779,0.115
58.03,35.797,0.733
58.06,40.219,1.008
58.1,38.464,-0.332
58.13,27.129,-1.478
58.16,14.845,-1.317
58.19,5.37,-0.939
58.23,-1.649,-0.722
58.26,-5.615,-0.332
58.29,-6.177,0.057
58.32,-5.44,0.011
58.36,-5.896,-0.195
58.39,-7.721,-0.378
58.42,-11.476,-0.63
58.45,-16.635,-0.687
58.49,-20.847,-0.527
58.52,-24.251,-0.561
58.55,-28.111,-0.664
58.58,-32.393,-0.813
58.62,-36.078,-0.722
58.65,-38.219,-0.664
58.68,-40.605,-0.894
58.71,-43.869,-0.951
58.75,-46.606,-0.882
58.78,-49.203,-0.951
58.81,-53.169,-1.1
58.84,-57.872,-0.974
58.88,-61.627,-0.825
58.91,-64.645,-0.871
58.94,-68.26,-0.951
58.97,-71.559,-0.859
59.01,-74.332,-0.928
59.04,-77.806,-1.077
59.07,-81.982,-1.134
59.1,-85.808,-1.157
59.14,-89.247,-1.272
59.17,-93.248,-1.386
59.2,-97.073,-1.294
59.23,-100.092,-1.237
59.27,-102.864,-1.386
59.3,-106.093,-1.535
59.33,-109.673,-1.535
59.37,-113.287,-1.524
59.4,-116.656,-1.638
59.43,-120.271,-1.787
59.46,-123.991,-1.833
59.5,-127.431,-1.764
59.53,-130.203,-1.764
59.56,-133.046,-1.959
59.59,-136.801,-2.154
59.63,-140.627,-2.222
59.66,-144.206,-2.325
59.69,-147.997,-2.429
59.72,-150.804,-2.36
59.76,-152.945,-2.44
59.79,-156.419,-2.589
59.82,-160.069,-2.486
59.85,-162.526,-2.451
59.89,-165.193,-2.738
59.92,-169.089,-2.818
59.95,-171.721,-2.543
59.98,-173.546,-2.715
60.02,-176.353,-2.956
60.05,-179.477,-3.036
60.08,-182.46,-3.07
60.11,-185.338,-3.059
60.15,-188.321,-3.253
60.18,-191.655,-3.46
60.21,-194.182,-3.528
60.24,-196.288,-3.677
60.28,-198.779,-3.826
60.31,-201.025,-3.895
60.34,-203.517,-3.941
60.37,-206.149,-3.941
60.41,-208.641,-3.952
60.44,-210.712,-4.021
60.47,-212.782,-4.101
60.5,-214.888,-4.204
60.54,-216.818,-4.365
60.57,-218.678,-4.513
60.6,-220.714,-4.628
60.63,-223.346,-4.662
60.67,-225.592,-4.72
60.7,-227.873,-4.914
60.73,-230.54,-5.029
60.76,-232.611,-4.983
60.8,-234.717,-4.983
60.83,-236.542,-4.949
60.86,-238.226,-5.029
60.89,-240.788,-5.098
60.93,-242.929,-5.04
60.96,-244.579,-5.063
60.99,-246.333,-5.121
61.02,-248.088,-5.144
61.06,-249.878,-5.155
61.09,-251.633,-5.086
61.12,-253.212,-5.121
61.16,-255.142,-5.224
61.19,-256.651,-5.212
61.22,-258.195,-5.212
61.25,-260.056,-5.235
61.29,-261.74,-5.27
61.32,-262.898,-5.292
61.35,-264.162,-5.27
61.38,-265.741,-5.235
61.42,-267.18,-5.224
61.45,-268.513,-5.327
61.48,-269.987,-5.373
61.51,-271.602,-5.384
61.55,-272.83,-5.338
61.58,-273.567,-5.292
61.61,-274.409,-5.315
61.64,-275.533,-5.27
61.68,-276.796,-5.258
61.71,-278.235,-5.327
61.74,-279.568,-5.441
61.77,-281.078,-5.567
61.81,-282.446,-5.59
61.84,-283.64,-5.567
61.87,-284.903,-5.556
61.9,-285.991,-5.579
61.94,-286.974,-5.556
61.97,-288.167,-5.522
62.0,-289.395,-5.476
62.03,-290.448,-5.522
62.07,-291.22,-5.51
62.1,-291.782,-5.476
62.13,-292.484,-5.396
62.16,-292.799,-5.315
62.2,-292.94,-5.27
62.23,-293.501,-5.327
62.26,-294.238,-5.292
62.29,-294.659,-5.27
62.33,-294.905,-5.292
62.36,-295.221,-5.35
62.39,-295.677,-5.327
62.42,-295.572,-5.189
62.46,-295.151,-5.109
62.49,-295.502,-5.201
62.52,-296.063,-5.178
62.55,-296.028,-5.189
62.59,-295.958,-5.109
62.62,-295.888,-5.178
62.65,-296.239,-5.166
62.68,-295.01,-4.926
62.72,-294.414,-5.006
62.75,-295.361,-4.995
62.78,-295.326,-4.995
62.82,-294.624,-5.029
62.85,-293.922,-4.949
62.88,-293.326,-4.823
62.91,-292.343,-4.685
62.95,-291.185,-4.628
62.98,-290.273,-4.571
63.01,-289.711,-4.548
63.04,-288.869,-4.479
63.08,-288.623,-4.766
63.11,-290.308,-5.121
63.14,-290.869,-5.132
63.17,-290.518,-5.212
63.21,-290.553,-5.166
63.24,-289.851,-4.983
63.27,-288.939,-4.811
63.3,-288.026,-4.559
63.34,-286.588,-4.284
63.37,-284.552,-4.101
63.4,-282.271,-3.941
63.43,-280.06,-3.815
63.47,-277.954,-3.666
63.5,-275.708,-3.586
63.53,-273.427,-3.631
63.56,-271.532,-3.689
63.6,-269.987,-3.723
63.63,-268.092,-3.654
63.66,-265.671,-3.608
63.69,-263.354,-3.608
63.73,-261.179,-3.505
63.76,-258.932,-3.391
63.79,-257.143,-3.334
63.82,-255.423,-3.391
63.86,-253.773,-3.494
63.89,-252.229,-3.517
63.92,-250.72,-3.46
63.95,-248.579,-3.322
63.99,-246.298,-3.345
64.02,-244.614,-3.299
64.05,-242.578,-3.116
64.08,-240.508,-3.07
64.12,-239.279,-3.093
64.15,-236.647,-2.898
64.18,-233.804,-2.933
64.21,-231.979,-2.795
64.25,-229.839,-2.715
64.28,-227.979,-2.749
64.31,-226.083,-2.726
64.34,-224.083,-2.738
64.38,-222.012,-2.738
64.41,-219.591,-2.577
64.44,-217.029,-2.532
64.47,-214.818,-2.543
64.51,-212.256,-2.577
64.54,-210.08,-2.658
64.57,-208.501,-2.577
64.61,-206.5,-2.406
64.64,-203.377,-2.394
64.67,-200.183,-2.497
64.7,-197.551,-2.463
64.74,-194.884,-2.28
64.77,-191.515,-2.211
64.8,-188.391,-2.417
64.83,-186.742,-2.577
64.87,-185.268,-2.337
64.9,-181.898,-2.028
64.93,-178.249,-2.062
64.96,-175.476,-2.062
65.0,-172.633,-1.913
65.03,-169.299,-1.753
65.06,-165.965,-1.73
65.09,-163.474,-1.81
65.13,-161.403,-1.695
65.16,-157.753,-1.34
65.19,-153.12,-1.249
65.22,-149.646,-1.398
65.26,-146.944,-1.306
65.29,-140.942,-0.584
65.32,-130.87,-0.08
65.35,-122.307,-0.458
65.39,-118.341,-0.985
65.42,-117.429,-1.26
65.45,-116.762,-1.111
65.48,-115.99,-1.111
65.52,-114.551,-0.859
65.55,-110.304,-0.504
65.58,-105.847,-0.687
65.61,-103.18,-0.745
65.65,-100.302,-0.596
65.68,-97.354,-0.653
65.71,-95.494,-0.79
65.74,-93.529,-0.619
65.78,-89.984,-0.378
65.81,-86.124,-0.493
65.84,-83.842,-0.664
65.87,-82.158,-0.55
65.91,-79.245,-0.378
65.94,-76.262,-0.515
65.97,-74.156,-0.573
66.0,-70.998,-0.229
66.04,-66.47,-0.137
66.07,-62.68,-0.378
66.1,-59.767,-0.447
66.13,-56.644,-0.344
66.17,-52.924,-0.218
66.2,-49.168,-0.286
66.23,-46.185,-0.263
66.26,-42.43,0.034
66.3,-37.727,0.092
66.33,-35.376,-0.309
66.36,-37.096,-0.813
66.4,-41.553,-1.02
66.43,-41.342,0.08
66.46,-30.779,1.409
66.49,-17.934,1.42
66.53,-7.195,1.18
66.56,1.158,0.825
66.59,5.615,0.424
66.62,6.844,0.034
66.66,5.896,-0.092
66.69,5.299,0.103
66.72,6.422,0.321
66.75,9.055,0.493
66.79,13.547,0.733
66.82,18.636,0.642
66.85,22.321,0.515
66.88,26.146,0.687
66.92,30.708,0.825
66.95,35.025,0.871
66.98,38.71,0.859
67.01,41.728,0.871
67.05,44.746,0.985
67.08,48.116,0.951
67.11,50.818,0.836
67.14,53.485,1.008
67.18,57.767,1.123
67.21,62.329,0.928
67.24,65.663,0.779
67.27,68.225,0.802
67.31,71.349,0.962
67.34,74.753,0.928
67.37,77.28,0.951
67.4,80.544,1.168
67.44,85.071,1.237
67.47,88.861,1.157
67.5,91.879,1.249
67.53,95.319,1.409
67.57,99.074,1.398
67.6,102.373,1.306
67.63,105.11,1.386
67.66,108.093,1.569
67.7,112.094,1.741
67.73,116.446,1.695
67.76,119.991,1.627
67.79,122.693,1.673
67.83,126.132,1.97
67.86,129.993,1.867
67.89,132.204,1.753
67.92,135.081,2.096
67.96,138.977,2.211
67.99,142.767,2.314
68.02,146.136,2.337
68.06,149.12,2.314
68.09,151.471,2.36
68.12,154.068,2.577
68.15,157.964,2.692
68.19,161.894,2.555
68.22,164.842,2.532
68.25,167.825,2.761
68.28,171.51,2.875
68.32,174.774,2.772
68.35,177.09,2.83
68.38,180.003,3.104
68.41,183.057,3.127
68.45,185.794,3.196
68.48,189.058,3.253
68.51,191.795,3.334
68.54,194.077,3.574
68.58,196.498,3.723
68.61,198.674,3.746
68.64,200.885,3.826
68.67,203.096,3.883
68.71,205.482,3.964
68.74,208.22,3.975
68.77,210.536,3.975
68.8,212.466,4.124
68.84,214.958,4.307
68.87,216.818,4.284
68.9,218.327,4.433
68.93,220.644,4.628
68.97,223.17,4.777
69.0,225.803,4.846
69.03,228.119,4.857
69.06,230.225,4.983
69.1,232.857,5.098
69.13,234.612,4.972
69.16,236.121,4.96
69.19,238.542,4.949
69.23,240.402,4.983
69.26,242.543,5.155
69.29,244.859,5.144
69.32,246.544,5.121
69.36,248.579,5.224
69.39,250.018,5.132
69.42,251.422,5.235
69.45,254.37,5.304
69.49,256.195,5.201
69.52,257.283,5.281
69.55,258.827,5.327
69.58,260.652,5.292
69.62,262.091,5.178
69.65,263.039,5.155
69.68,264.337,5.212
69.71,265.916,5.258
69.75,267.355,5.235
69.78,268.794,5.281
69.81,270.374,5.373
69.85,271.883,5.453
69.88,273.286,5.441
69.91,273.953,5.281
69.94,274.585,5.247
69.98,275.673,5.258
70.01,277.042,5.327
70.04,278.726,5.384
70.07,280.27,5.464
70.11,281.779,5.602
70.14,283.218,5.682
70.17,284.306,5.636
70.2,285.324,5.567
70.24,286.272,5.464
70.27,287.184,5.476
70.3,288.377,5.499
70.33,289.641,5.522
70.37,290.834,5.499
70.4,291.606,5.522
70.43,292.168,5.51
70.46,292.659,5.453
70.5,293.045,5.338
70.53,293.396,5.258
70.56,293.958,5.315
70.59,294.695,5.373
70.63,295.221,5.35
70.66,295.432,5.315
70.69,295.607,5.292
70.72,295.782,5.304
70.76,295.712,5.178
70.79,294.94,5.04
70.82,295.221,5.121
70.85,296.379,5.189
70.89,295.888,5.075
70.92,295.221,5.201
70.95,295.818,5.144
70.98,295.396,4.995
71.02,295.01,5.086
71.05,294.835,4.995
71.08,294.94,5.086
71.11,295.326,5.029
71.15,294.659,4.995
71.18,294.168,5.018
71.21,293.396,4.88
71.24,292.413,4.731
71.28,291.29,4.571
71.31,290.202,4.536
71.34,289.606,4.594
71.37,288.904,4.536
71.41,287.921,4.536
71.44,287.184,4.559
71.47,285.991,4.513
71.5,284.552,4.468
71.54,283.464,4.387
71.57,282.446,4.296
71.6,281.323,4.284
71.64,280.025,4.284
71.67,278.656,4.261
71.7,277.568,4.193
71.73,276.094,4.067
71.77,274.023,4.009
71.8,272.374,4.009
71.83,271.216,3.941
71.86,269.882,3.861
71.9,268.127,3.849
71.93,266.618,3.918
71.96,265.46,3.929
71.99,263.881,3.826
72.03,262.021,3.723
72.06,260.512,3.769
72.09,259.319,3.769
72.12,257.458,3.643
72.16,255.914,3.62
72.19,254.546,3.54
72.22,252.545,3.505
72.25,250.439,3.448
72.29,248.404,3.311
72.32,246.86,3.265
72.35,244.965,3.127
72.38,242.473,3.173
72.42,240.437,3.104
72.45,238.542,3.001
72.48,236.963,2.99
72.51,234.927,2.933
72.55,232.541,2.967
72.58,230.786,2.944
72.61,229.137,2.852
72.64,227.171,2.784
72.68,224.925,2.749
72.71,223.03,2.772
72.74,220.784,2.669
72.77,217.976,2.612
72.81,215.695,2.589
72.84,213.484,2.474
72.87,210.536,2.451
72.9,207.869,2.646
72.94,206.29,2.681
72.97,204.605,2.463
73.0,201.657,2.291
73.03,197.972,2.394
73.07,194.849,2.497
73.1,192.287,2.383
73.13,189.619,2.28
73.16,187.163,2.406
73.2,184.987,2.417
73.23,182.285,2.222
73.26,179.091,2.062
73.3,175.967,2.005
73.33,173.019,1.97
73.36,170.001,1.879
73.39,166.878,1.787
73.43,163.86,1.707
73.46,160.947,1.673
73.49,157.928,1.524
73.52,153.893,1.26
73.56,149.892,1.272
73.59,146.768,1.294
73.62,143.539,1.203
73.65,140.556,1.34
73.69,138.275,1.294
73.72,135.678,1.123
73.75,132.344,1.008
73.78,128.413,0.974
73.82,125.15,1.111
73.85,122.552,0.974
73.88,118.622,0.687
73.91,114.165,0.722
73.95,111.182,0.962
73.98,108.9,0.871
74.01,105.145,0.493
74.04,100.513,0.538
74.08,97.038,0.619
74.11,93.213,0.447
74.14,89.001,0.424
74.17,85.527,0.538
74.21,82.755,0.596
74.24,80.017,0.47
74.27,76.929,0.389
74.3,73.63,0.401
74.34,70.19,0.401
74.37,66.576,0.332
74.4,63.066,0.298
74.43,59.381,0.298
74.47,55.731,0.355
74.5,52.432,0.355
74.53,49.028,0.298
74.56,45.378,0.206
74.6,41.833,0.137
74.63,38.289,-0.023
74.66,35.587,0.149
74.69,36.148,0.699
74.73,39.763,0.951
74.76,37.973,-0.389
74.79,26.567,-1.546
74.82,14.284,-1.272
74.86,5.44,-0.871
74.89,-1.439,-0.733
74.92,-5.44,-0.332
74.95,-5.861,0.057
74.99,-5.264,-0.034
75.02,-5.896,-0.206
75.05,-7.581,-0.321
75.09,-10.774,-0.584
75.12,-15.723,-0.687
75.15,-20.18,-0.584
75.18,-23.97,-0.596
75.22,-28.111,-0.653
75.25,-32.393,-0.756
75.28,-36.183,-0.813
75.31,-38.991,-0.79
75.35,-41.798,-0.905
75.38,-44.606,-0.894
75.41,-46.992,-0.871
75.44,-49.73,-0.905
75.48,-53.345,-0.974
75.51,-57.275,-0.985
75.54,-61.206,-0.997
75.57,-65.347,-0.916
75.61,-68.787,-0.848
75.64,-71.735,-0.882
75.67,-74.823,-0.905
75.7,-77.876,-0.951
75.74,-81.21,-1.123
75.77,-85.281,-1.283
75.8,-89.563,-1.294
75.83,-93.423,-1.226
75.87,-96.547,-1.26
75.9,-99.6,-1.398
75.93,-103.04,-1.466
75.96,-106.374,-1.398
76.0,-109.427,-1.42
76.03,-112.691,-1.604
76.06,-116.481,-1.776
76.09,-120.482,-1.764
76.13,-123.921,-1.661
76.16,-126.939,-1.753
76.19,-130.168,-1.925
76.22,-133.713,-2.016
76.26,-137.187,-2.051
76.29,-140.311,-2.199
76.32,-143.855,-2.371
76.35,-147.786,-2.497
76.39,-150.945,-2.406
76.42,-153.647,-2.348
76.45,-156.665,-2.463
76.48,-159.508,-2.543
76.52,-162.14,-2.623
76.55,-165.649,-2.704
76.58,-169.44,-2.658
76.61,-171.791,-2.6
76.65,-174.178,-2.841
76.68,-177.055,-2.875
76.71,-179.547,-2.933
76.74,-182.46,-3.047
76.78,-185.162,-3.116
76.81,-188.251,-3.356
76.84,-191.795,-3.414
76.88,-194.077,-3.402
76.91,-196.007,-3.666
76.94,-198.709,-3.838
76.97,-201.025,-3.815
77.01,-203.096,-3.838
77.04,-205.623,-3.918
77.07,-208.29,-4.021
77.1,-210.782,-4.032
77.14,-212.677,-4.067
77.17,-214.502,-4.284
77.2,-216.888,-4.479
77.23,-219.029,-4.525
77.27,-221.275,-4.605
77.3,-223.697,-4.72
77.33,-225.838,-4.834
77.36,-228.189,-4.937
77.4,-230.751,-4.949
77.43,-232.927,-4.926
77.46,-234.927,-5.006
77.49,-236.752,-5.006
77.53,-238.577,-5.006
77.56,-240.929,-4.995
77.59,-242.719,-4.949
77.62,-244.122,-5.063
77.66,-246.298,-5.155
77.69,-248.369,-5.109
77.72,-249.983,-5.098
77.75,-251.527,-5.132
77.79,-253.177,-5.201
77.82,-255.142,-5.224
77.85,-256.651,-5.144
77.88,-257.985,-5.166
77.92,-259.74,-5.258
77.95,-261.389,-5.27
77.98,-262.863,-5.258
78.01,-264.267,-5.201
78.05,-265.565,-5.235
78.08,-267.004,-5.315
78.11,-268.584,-5.35
78.14,-270.163,-5.35
78.18,-271.707,-5.361
78.21,-272.9,-5.384
78.24,-273.778,-5.361
78.27,-274.55,-5.292
78.31,-275.638,-5.212
78.34,-276.866,-5.235
78.37,-278.305,-5.361
78.4,-279.814,-5.464
78.44,-281.393,-5.567
78.47,-282.797,-5.556
78.5,-283.78,-5.579
78.54,-284.833,-5.59
78.57,-285.851,-5.522
78.6,-286.833,-5.43
78.63,-287.991,-5.441
78.67,-289.079,-5.487
78.7,-290.132,-5.533
78.73,-290.974,-5.499
78.76,-291.536,-5.43
78.8,-292.097,-5.396
78.83,-292.448,-5.35
78.86,-292.764,-5.292
78.89,-293.396,-5.292
78.93,-294.133,-5.258
78.96,-294.519,-5.338
78.99,-294.835,-5.361
79.02,-295.186,-5.35
79.06,-295.642,-5.27
79.09,-295.537,-5.189
79.12,-295.045,-5.144
79.15,-295.432,-5.224
79.19,-296.098,-5.155
79.22,-295.923,-5.144
79.25,-295.642,-5.109
79.28,-295.677,-5.212
79.32,-296.449,-5.212
79.35,-295.326,-4.914
79.38,-294.449,-4.983
79.41,-295.186,-5.052
79.45,-295.326,-5.029
79.48,-294.695,-4.983
79.51,-294.098,-4.903
79.54,-293.185,-4.766
79.58,-291.922,-4.685
79.61,-290.939,-4.594
79.64,-290.553,-4.617
79.67,-290.974,-4.731
79.71,-291.325,-4.914
79.74,-291.045,-5.006
79.77,-290.167,-4.937
79.8,-288.939,-4.708
79.84,-287.289,-4.456
79.87,-285.605,-4.273
79.9,-283.745,-4.078
79.93,-281.885,-3.941
79.97,-280.095,-3.826
80.0,-278.305,-3.849
80.03,-276.585,-3.906
80.06,-274.655,-3.861
80.1,-272.585,-3.826
80.13,-271.181,-3.849
80.16,-269.777,-3.872
80.19,-268.022,-3.895
80.23,-266.408,-3.849
80.26,-264.828,-3.769
80.29,-263.214,-3.746
80.33,-261.424,-3.723
80.36,-259.74,-3.735
80.39,-258.582,-3.689
80.42,-257.213,-3.597
80.46,-255.458,-3.631
80.49,-253.879,-3.631
80.52,-252.194,-3.574
80.55,-250.861,-3.505
80.59,-248.755,-3.299
80.62,-246.263,-3.288
80.65,-244.579,-3.276
80.68,-242.999,-3.162
80.72,-240.718,-2.967
80.75,-237.91,-2.933
80.78,-236.647,-3.082
80.81,-235.173,-2.978
80.85,-232.857,-2.933
80.88,-231.277,-2.956
80.91,-229.733,-2.933
80.94,-227.557,-2.875
80.98,-225.592,-2.864
81.01,-223.872,-2.795
81.04,-222.012,-2.761
81.07,-220.187,-2.704
81.11,-217.871,-2.589
81.14,-215.099,-2.589
81.17,-212.817,-2.658
81.2,-210.641,-2.486
81.24,-207.904,-2.371
81.27,-205.202,-2.474
81.3,-202.956,-2.635
81.33,-200.885,-2.52
81.37,-198.218,-2.28
81.4,-194.919,-2.257
81.43,-191.585,-2.36
81.46,-188.672,-2.44
81.5,-186.531,-2.417
81.53,-184.355,-2.245
81.56,-181.407,-2.188
81.59,-178.564,-2.199
81.63,-176.038,-2.062
81.66,-173.265,-1.947
81.69,-170.177,-1.81
81.72,-166.632,-1.753
81.76,-163.684,-1.764
81.79,-161.087,-1.661
81.82,-157.823,-1.501
81.85,-154.559,-1.489
81.89,-151.717,-1.432
81.92,-148.383,-1.272
81.95,-144.873,-1.191
81.98,-141.434,-1.157
82.02,-139.117,-1.352
82.05,-136.801,-1.203
82.08,-132.555,-0.905
82.12,-128.589,-0.962
82.15,-125.465,-0.962
82.18,-122.166,-0.894
82.21,-118.025,-0.779
82.25,-114.586,-0.871
82.28,-112.305,-0.882
82.31,-108.971,-0.596
82.34,-104.268,-0.527
82.38,-100.723,-0.699
82.41,-97.81,-0.584
82.44,-93.95,-0.435
82.47,-89.984,-0.481
82.51,-86.966,-0.55
82.54,-83.948,-0.447
82.57,-80.298,-0.389
82.6,-76.999,-0.493
82.64,-74.332,-0.458
82.67,-70.963,-0.241
82.7,-66.611,-0.218
82.73,-62.645,-0.355
82.77,-59.206,-0.378
82.8,-55.766,-0.263
82.83,-51.765,-0.218
82.86,-48.01,-0.252
82.9,-44.641,-0.149
82.93,-40.746,-0.023
82.96,-36.71,0.023
82.99,-34.323,-0.172
83.03,-35.165,-0.596
83.06,-38.254,-0.733
83.09,-36.113,0.367
83.12,-25.9,1.352
83.16,-15.056,1.168
83.19,-6.808,0.859
83.22,-0.246,0.71
83.25,3.825,0.389
83.29,5.124,0.126
83.32,6.001,0.252
83.35,8.353,0.458
83.38,11.546,0.47
83.42,15.547,0.653
83.45,19.864,0.55
83.48,22.04,0.286
83.51,24.707,0.619
83.55,29.726,0.882
83.58,33.972,0.768
83.61,36.429,0.642
83.64,38.535,0.687
83.68,40.359,0.745
83.71,42.746,0.916
83.74,45.975,1.02
83.78,49.554,1.077
83.81,53.661,1.111
83.84,58.258,1.008
83.87,61.908,0.779
83.91,64.259,0.745
83.94,66.997,0.905
83.97,70.717,0.974
84.0,74.016,0.974
84.04,77.56,1.1
84.07,81.842,1.191
84.1,86.018,1.18
84.13,89.458,1.237
84.17,92.967,1.386
84.2,96.863,1.352
84.23,100.021,1.272
84.26,103.04,1.386
84.3,106.303,1.569
84.33,109.918,1.604
84.36,113.358,1.546
84.39,116.621,1.592
84.43,119.885,1.718
84.46,123.289,1.833
84.49,126.729,1.81
84.52,129.958,1.833
84.56,133.186,1.993
84.59,136.977,2.165
84.62,140.942,2.303
84.65,144.873,2.394
84.69,148.523,2.406
84.72,151.19,2.348
84.75,153.542,2.555
84.78,157.507,2.715
84.82,160.806,2.406
84.85,162.947,2.463
84.88,166.0,2.772
84.91,169.615,2.818
84.95,172.458,2.669
84.98,174.879,2.772
85.01,177.441,2.944
85.04,180.214,3.047
85.08,182.811,3.104
85.11,185.864,3.15
85.14,188.918,3.219
85.17,191.479,3.379
85.21,193.796,3.563
85.24,196.182,3.7
85.27,198.393,3.792
85.3,200.71,3.895
85.34,202.956,3.929
85.37,205.518,3.975
85.4,208.22,3.964
85.43,210.431,4.021
85.47,212.607,4.135
85.5,214.958,4.261
85.53,216.678,4.307
85.57,218.257,4.525
85.6,220.749,4.697
85.63,223.381,4.754
85.66,226.013,4.823
85.7,228.119,4.892
85.73,230.33,5.052
85.76,232.927,5.098
85.79,234.682,4.903
85.83,235.805,4.857
85.86,237.91,4.96
85.89,240.157,4.983
85.92,242.403,5.086
85.96,244.333,5.04
85.99,245.772,5.121
86.02,247.913,5.224
86.05,249.667,5.201
86.09,251.527,5.189
86.12,253.036,5.132
86.15,254.826,5.247
86.18,256.827,5.304
86.22,258.617,5.315
86.25,260.406,5.315
86.28,261.951,5.327
86.31,263.144,5.315
86.35,264.302,5.327
86.38,266.127,5.304
86.41,267.776,5.258
86.44,269.18,5.361
86.48,270.795,5.464
86.51,272.234,5.464
86.54,273.567,5.418
86.57,274.234,5.292
86.61,274.901,5.315
86.64,276.094,5.304
86.67,277.568,5.327
86.7,279.112,5.384
86.74,280.551,5.499
86.77,281.92,5.625
86.8,283.359,5.67
86.83,284.552,5.59
86.87,285.429,5.544
86.9,286.447,5.51
86.93,287.465,5.522
86.96,288.693,5.522
87.0,290.027,5.522
87.03,291.08,5.556
87.06,291.887,5.59
87.09,292.554,5.544
87.13,292.975,5.43
87.16,293.15,5.292
87.19,293.115,5.212
87.23,293.571,5.258
87.26,294.379,5.304
87.29,294.87,5.258
87.32,294.975,5.304
87.36,295.151,5.327
87.39,295.432,5.327
87.42,295.291,5.166
87.45,294.835,5.098
87.49,295.291,5.178
87.52,295.923,5.212
87.55,295.958,5.201
87.58,295.888,5.212
87.62,295.677,5.121
87.65,295.256,5.132
87.68,295.747,5.178
87.71,295.537,5.029
87.75,295.537,5.121
87.78,295.818,5.121
87.81,295.396,5.098
87.84,294.554,4.972
87.88,293.712,4.834
87.91,292.729,4.651
87.94,291.396,4.559
87.97,290.378,4.559
88.01,289.886,4.559
88.04,289.149,4.502
88.07,287.816,4.525
88.1,286.903,4.582
88.14,285.851,4.513
88.17,284.517,4.41
88.2,283.289,4.307
88.23,281.92,4.296
88.27,280.832,4.319
88.3,279.779,4.284
88.33,278.621,4.204
88.36,277.112,4.158
88.4,275.533,4.124
88.43,273.778,4.055
88.46,272.093,3.941
88.49,270.619,3.861
88.53,269.145,3.872
88.56,267.671,3.906
88.59,266.302,3.918
88.62,264.899,3.849
88.66,263.319,3.792
88.69,261.389,3.769
88.72,259.985,3.815
88.75,259.003,3.78
88.79,257.318,3.597
88.82,254.897,3.54
88.85,253.387,3.597
88.88,252.054,3.505
88.92,249.913,3.345
88.95,247.702,3.265
88.98,245.982,3.253
89.02,243.842,3.173
89.05,241.631,3.185
89.08,240.051,3.059
89.11,238.016,3.001
89.15,236.366,3.104
89.18,234.612,3.082
89.21,232.471,2.978
89.24,230.681,2.933
89.28,228.926,2.864
89.31,226.75,2.83
89.34,224.609,2.784
89.37,222.784,2.795
89.41,220.679,2.704
89.44,218.257,2.566
89.47,215.625,2.509
89.5,212.888,2.532
89.54,210.08,2.589
89.57,207.974,2.589
89.6,206.149,2.486
89.63,203.763,2.429
89.67,200.85,2.509
89.7,198.077,2.52
89.73,195.515,2.36
89.76,192.462,2.234
89.8,189.058,2.314
89.83,186.601,2.509
89.86,184.706,2.406
89.89,182.039,2.177
89.93,178.88,2.131
89.96,176.248,2.119
89.99,173.441,1.959
90.02,169.931,1.776
90.06,166.386,1.718
90.09,163.474,1.776
90.12,161.157,1.73
90.15,158.139,1.466
90.19,153.787,1.226
90.22,149.611,1.329
90.25,146.803,1.363
90.28,143.575,1.26
90.32,140.556,1.26
90.35,137.784,1.157
90.38,134.906,1.18
90.41,131.853,1.1
90.45,128.273,1.02
90.48,125.325,1.042
90.51,122.342,0.905
90.54,118.517,0.779
90.58,114.445,0.836
90.61,111.708,0.951
90.64,108.83,0.676
90.67,104.128,0.458
90.71,99.916,0.63
90.74,96.793,0.642
90.77,93.073,0.412
90.81,88.686,0.435
90.84,85.352,0.596
90.87,82.79,0.515
90.9,79.631,0.378
90.94,76.297,0.458
90.97,73.454,0.504
91.0,70.366,0.367
91.03,66.576,0.241
91.07,62.715,0.309
91.1,59.171,0.401
91.13,55.942,0.401
91.16,52.538,0.309
91.2,48.853,0.252
91.23,45.203,0.183
91.26,41.763,0.126
91.29,38.394,0.034
91.33,35.622,0.172
91.36,36.674,0.836
91.39,41.553,1.1
91.42,40.57,-0.286
91.46,29.024,-1.501
91.49,16.074,-1.409
91.52,5.299,-1.134
91.55,-3.053,-0.882
91.59,-7.861,-0.424
91.62,-8.774,0.092
91.65,-7.545,0.08
91.68,-7.405,-0.126
91.72,-8.388,-0.252
91.75,-11.23,-0.55
91.78,-16.003,-0.687
91.81,-20.355,-0.561
91.85,-24.216,-0.63
91.88,-28.813,-0.71
91.91,-32.919,-0.768
91.94,-36.429,-0.836
91.98,-39.131,-0.745
92.01,-41.588,-0.813
92.04,-44.08,-0.882
92.07,-46.782,-0.894
92.11,-49.519,-0.894
92.14,-52.959,-1.054
92.17,-57.416,-1.123
92.2,-61.873,-0.939
92.24,-65.312,-0.79
92.27,-68.365,-0.859
92.3,-71.664,-0.916
92.33,-74.928,-0.916
92.37,-77.876,-0.997
92.4,-81.421,-1.191
92.43,-85.773,-1.226
92.47,-89.528,-1.168
92.5,-92.862,-1.249
92.53,-96.407,-1.42
92.56,-100.162,-1.42
92.6,-103.461,-1.306
92.63,-106.128,-1.34
92.66,-109.146,-1.558
92.69,-112.901,-1.718
92.73,-116.972,-1.695
92.76,-120.552,-1.661
92.79,-123.816,-1.718
92.82,-127.045,-1.867
92.86,-130.238,-1.879
92.89,-133.327,-1.925
92.92,-136.696,-2.131
92.95,-140.381,-2.303
92.99,-144.347,-2.394
93.02,-148.032,-2.451
93.05,-151.19,-2.291
93.08,-153.12,-2.268
93.12,-155.788,-2.6
93.15,-159.438,-2.692
93.18,-162.842,-2.52
93.21,-165.614,-2.509
93.25,-168.668,-2.704
93.28,-171.475,-2.761
93.31,-174.423,-2.83
93.34,-177.055,-2.818
93.38,-179.442,-2.967
93.41,-182.285,-3.139
93.44,-185.373,-3.23
93.47,-188.707,-3.288
93.51,-191.69,-3.345
93.54,-193.936,-3.517
93.57,-196.217,-3.757
93.6,-198.92,-3.826
93.64,-201.096,-3.803
93.67,-203.236,-3.895
93.7,-205.869,-3.987
93.73,-208.746,-4.032
93.77,-211.133,-4.044
93.8,-212.923,-4.181
93.83,-215.099,-4.376
93.86,-217.485,-4.456
93.9,-219.521,-4.502
93.93,-221.591,-4.651
93.96,-223.907,-4.8
93.99,-226.224,-4.834
94.03,-228.575,-4.857
94.06,-230.997,-4.892
94.09,-232.962,-4.96
94.12,-234.962,-5.029
94.16,-236.752,-4.949
94.19,-238.577,-4.926
94.22,-240.718,-4.972
94.26,-242.332,-4.983
94.29,-243.947,-5.063
94.32,-246.298,-5.109
94.35,-248.334,-5.075
94.39,-249.808,-5.166
94.42,-251.457,-5.212
94.45,-253.282,-5.224
94.48,-255.283,-5.201
94.52,-256.862,-5.178
94.55,-258.441,-5.304
94.58,-260.547,-5.384
94.61,-262.302,-5.315
94.65,-263.495,-5.258
94.68,-264.548,-5.235
94.71,-265.776,-5.27
94.74,-267.39,-5.258
94.78,-268.97,-5.258
94.81,-270.374,-5.292
94.84,-271.672,-5.373
94.87,-272.9,-5.384
94.91,-273.672,-5.27
94.94,-274.445,-5.224
94.97,-275.533,-5.224
95.0,-276.726,-5.304
95.04,-278.27,-5.418
95.07,-279.955,-5.464
95.1,-281.534,-5.567
95.13,-282.762,-5.625
95.17,-283.885,-5.659
95.2,-285.149,-5.625
95.23,-286.272,-5.51
95.26,-287.114,-5.453
95.3,-288.167,-5.499
95.33,-289.465,-5.522
95.36,-290.623,-5.522
95.39,-291.431,-5.464
95.43,-291.817,-5.464
95.46,-292.413,-5.441
95.49,-292.729,-5.338
95.52,-292.905,-5.235
95.56,-293.466,-5.258
95.59,-294.344,-5.292
95.62,-294.554,-5.327
95.65,-294.8,-5.315
95.69,-295.116,-5.292
95.72,-295.502,-5.258
95.75,-295.221,-5.178
95.78,-294.73,-5.132
95.82,-295.396,-5.201
95.85,-295.993,-5.109
95.88,-295.818,-5.189
95.91,-295.677,-5.178
95.95,-295.853,-5.247
95.98,-296.59,-5.189
96.01,-295.291,-4.937
96.05,-294.484,-5.052
96.08,-295.361,-5.098
96.11,-295.502,-4.972
96.14,-294.554,-4.914
96.18,-293.712,-4.88
96.21,-292.975,-4.8
96.24,-291.887,-4.651
96.27,-290.518,-4.468
96.31,-289.395,-4.445
96.34,-289.114,-4.571
96.37,-289.114,-4.697
96.4,-288.553,-4.72
96.44,-287.5,-4.662
96.47,-285.851,-4.513
96.5,-284.131,-4.399
96.53,-282.832,-4.284
96.57,-281.639,-4.135
96.6,-280.305,-4.09
96.63,-278.831,-4.09
96.66,-277.393,-4.147
96.7,-276.234,-4.158
96.73,-274.971,-4.055
96.76,-273.286,-4.044
96.79,-271.918,-4.044
96.83,-270.479,-4.032
96.86,-269.18,-3.987
96.89,-267.812,-3.883
96.92,-266.197,-3.872
96.96,-264.653,-3.872
96.99,-262.898,-3.769
97.02,-261.073,-3.677
97.05,-259.81,-3.631
97.09,-258.125,-3.597
97.12,-256.406,-3.666
97.15,-255.072,-3.608
97.18,-253.423,-3.528
97.22,-251.843,-3.517
97.25,-249.948,-3.46
97.28,-247.807,-3.391
97.31,-246.158,-3.299
97.35,-244.473,-3.185
97.38,-242.052,-3.047
97.41,-239.455,-3.07
97.44,-238.156,-3.104
97.48,-236.823,-2.978
97.51,-234.366,-2.875
97.54,-231.909,-2.898
97.57,-230.225,-2.944
97.61,-228.435,-2.795
97.64,-226.154,-2.738
97.67,-224.188,-2.738
97.71,-222.293,-2.715
97.74,-220.293,-2.681
97.77,-217.696,-2.612
97.8,-215.274,-2.635
97.84,-213.519,-2.577
97.87,-210.957,-2.417
97.9,-207.729,-2.451
97.93,-205.272,-2.681
97.97,-203.973,-2.577
98.0,-201.552,-2.291
98.03,-197.902,-2.257
98.06,-194.638,-2.52
98.1,-192.427,-2.509
98.13,-189.76,-2.245
98.16,-186.671,-2.245
98.19,-184.109,-2.36
98.23,-181.758,-2.291
98.26,-179.056,-2.108
98.29,-176.073,-2.005
98.32,-173.09,-1.936
98.36,-169.861,-1.821
98.39,-166.457,-1.787
98.42,-163.649,-1.753
98.45,-160.912,-1.638
98.49,-157.613,-1.501
98.52,-154.173,-1.398
98.55,-150.664,-1.294
98.58,-146.909,-1.157
98.62,-143.294,-1.203
98.65,-140.24,-1.214
98.68,-137.468,-1.283
98.71,-135.257,-1.191
98.75,-131.642,-0.859
98.78,-127.747,-0.974
98.81,-124.939,-1.111
98.84,-122.412,-1.031
98.88,-119.043,-0.756
98.91,-115.077,-0.745
98.94,-112.234,-0.905
98.97,-109.111,-0.733
99.01,-104.865,-0.515
99.04,-100.723,-0.561
99.07,-97.003,-0.55
99.1,-93.178,-0.458
99.14,-89.177,-0.424
99.17,-85.843,-0.515
99.2,-82.86,-0.515
99.23,-79.456,-0.412
99.27,-76.122,-0.378
99.3,-73.068,-0.389
99.33,-69.559,-0.309
99.36,-65.558,-0.321
99.4,-61.978,-0.321
99.43,-58.363,-0.241
99.46,-54.538,-0.298
99.5,-50.993,-0.298
99.53,-47.519,-0.206
99.56,-43.939,-0.195
99.59,-40.395,-0.08
99.63,-36.674,0.057
99.66,-34.393,-0.149
99.69,-35.13,-0.63
99.72,-38.605,-0.905
99.76,-37.657,0.195
99.79,-27.55,1.432
99.82,-15.793,1.283
99.85,-6.668,0.962
99.89,0.737,0.825
99.92,5.58,0.458
99.95,7.159,0.126
99.98,7.51,0.137
100.02,8.669,0.286
100.05,10.669,0.355
100.08,13.722,0.55
100.11,18.109,0.63
100.15,20.952,0.321
100.18,23.444,0.584
100.21,28.427,0.859
100.24,32.884,0.699
100.28,35.481,0.63
100.31,38.008,0.836
100.34,41.167,0.951
100.37,44.08,0.894
100.41,46.571,0.939
100.44,50.046,1.088
100.47,54.327,1.008
100.5,58.118,0.882
100.54,61.382,0.928
100.57,64.926,0.951
100.6,68.471,0.871
100.63,71.384,0.928
100.67,74.858,0.997
100.7,78.473,1.02
100.73,81.947,1.1
100.76,85.632,1.26
100.8,89.598,1.329
100.83,93.529,1.294
100.86,96.898,1.26
100.89,99.846,1.375
100.93,103.285,1.524
100.96,106.83,1.501
100.99,109.883,1.409
101.02,112.866,1.546
101.06,116.2,1.73
101.09,120.061,1.821
101.12,123.816,1.741
101.15,126.694,1.707
101.19,129.642,1.89
101.22,133.046,2.039
101.25,136.661,2.085
101.29,140.205,2.257
101.32,144.276,2.451
101.35,147.891,2.451
101.38,150.418,2.383
101.42,152.875,2.417
101.45,156.419,2.543
101.48,159.402,2.474
101.51,161.754,2.658
101.55,165.474,2.795
101.58,169.159,2.623
101.61,171.44,2.612
101.64,174.037,2.887
101.68,177.126,2.944
101.71,179.793,2.99
101.74,182.671,3.047
101.77,185.408,3.127
101.81,188.356,3.345
101.84,191.55,3.437
101.87,194.041,3.482
101.9,196.252,3.712
101.94,198.499,3.838
101.97,200.885,3.883
102.0,203.236,3.861
102.03,205.658,3.941
102.07,208.325,4.044
102.1,210.887,4.067
102.13,212.852,4.113
102.16,214.853,4.342
102.2,216.783,4.456
102.23,218.538,4.536
102.26,220.959,4.594
102.29,223.346,4.662
102.33,225.557,4.823
102.36,227.838,4.914
102.39,230.19,4.96
102.42,232.611,4.96
102.46,234.296,4.926
102.49,235.84,5.029
102.52,238.507,5.098
102.55,240.753,5.04
102.59,242.859,5.132
102.62,244.684,5.155
102.65,246.474,5.247
102.68,248.72,5.235
102.72,250.334,5.132
102.75,251.913,5.155
102.78,253.423,5.178
102.81,255.423,5.292
102.85,257.318,5.189
102.88,258.582,5.189
102.91,260.126,5.292
102.95,262.091,5.373
102.98,263.565,5.304
103.01,264.688,5.258
103.04,266.267,5.304
103.08,267.882,5.35
103.11,269.321,5.407
103.14,270.9,5.396
103.17,272.374,5.396
103.21,273.532,5.396
103.24,274.094,5.327
103.27,274.866,5.304
103.3,276.199,5.235
103.34,277.533,5.292
103.37,278.937,5.407
103.4,280.341,5.544
103.43,281.85,5.602
103.47,283.218,5.59
103.5,284.236,5.567
103.53,285.254,5.602
103.56,286.377,5.544
103.6,287.325,5.464
103.63,288.377,5.453
103.66,289.5,5.51
103.69,290.623,5.579
103.73,291.501,5.556
103.76,292.168,5.476
103.79,292.624,5.43
103.82,292.905,5.373
103.86,293.185,5.338
103.89,293.817,5.304
103.92,294.624,5.315
103.95,294.975,5.338
103.99,295.256,5.384
104.02,295.642,5.361
104.05,295.923,5.292
104.08,295.607,5.155
104.12,295.081,5.144
104.15,295.747,5.235
104.18,296.379,5.178
104.21,296.204,5.155
104.25,295.888,5.166
104.28,295.782,5.166
104.31,295.607,5.132
104.34,295.888,5.098
104.38,295.221,4.937
104.41,295.045,5.109
104.44,295.607,5.132
104.47,295.256,5.063
104.51,294.449,4.937
104.54,293.361,4.823
104.57,292.343,4.708
104.6,291.115,4.559
104.64,290.027,4.491
104.67,289.5,4.502
104.7,288.763,4.513
104.74,287.535,4.571
104.77,286.763,4.582
104.8,285.605,4.445
104.83,284.096,4.399
104.87,282.832,4.376
104.9,281.779,4.342
104.93,280.902,4.307
104.96,279.779,4.25
105.0,278.305,4.227
105.03,276.761,4.204
105.06,275.217,4.101
105.09,273.708,4.009
105.13,272.269,3.929
105.16,270.549,3.929
105.19,269.075,3.964
105.22,267.882,3.941
105.26,266.689,3.895
105.29,265.25,3.895
105.32,263.495,3.883
105.35,261.74,3.826
105.39,260.336,3.746
105.42,258.932,3.643
105.45,256.827,3.54
105.48,254.616,3.563
105.52,253.633,3.597
105.55,252.264,3.437
105.58,249.843,3.334
105.61,247.491,3.345
105.65,245.877,3.345
105.68,244.052,3.173
105.71,242.052,3.127
105.74,240.262,3.104
105.78,238.086,3.104
105.81,236.366,3.116
105.84,234.506,2.956
105.87,232.295,2.864
105.91,230.435,2.933
105.94,228.786,2.921
105.97,226.68,2.795
106.0,224.399,2.772
106.04,222.855,2.807
106.07,220.959,2.681
106.1,218.222,2.555
106.13,215.099,2.566
106.17,212.607,2.658
106.2,210.782,2.543
106.23,208.571,2.463
106.26,206.044,2.532
106.3,203.552,2.6
106.33,201.096,2.486
106.36,198.218,2.28
106.39,194.989,2.303
106.43,191.971,2.463
106.46,189.374,2.486
106.49,187.128,2.406
106.53,184.882,2.268
106.56,181.934,2.222
106.59,179.021,2.177
106.62,176.143,2.016
106.66,172.914,1.902
106.69,169.72,1.821
106.72,166.492,1.81
106.75,163.93,1.81
106.79,161.438,1.673
106.82,158.034,1.478
106.85,153.822,1.329
106.88,150.278,1.432
106.92,147.716,1.398
106.95,144.241,1.123
106.98,140.837,1.226
107.01,138.065,1.203
107.05,134.906,1.191
107.08,131.677,1.042
107.11,127.992,0.916
107.14,124.834,1.02
107.18,122.026,0.985
107.21,118.622,0.894
107.24,115.077,0.802
107.27,112.024,0.848
107.31,109.041,0.71
107.34,104.478,0.504
107.37,100.127,0.607
107.4,96.793,0.584
107.44,92.792,0.424
107.47,88.721,0.481
107.5,85.738,0.561
107.53,83.035,0.493
107.57,79.771,0.447
107.6,76.543,0.481
107.63,73.56,0.424
107.66,70.226,0.309
107.7,66.33,0.309
107.73,62.645,0.424
107.76,59.451,0.401
107.79,56.117,0.309
107.83,52.467,0.321
107.86,49.239,0.332
107.89,45.975,0.183
107.92,42.009,0.092
107.96,38.113,0.057
107.99,36.008,0.309
108.02,37.447,0.745
108.05,40.254,0.676
108.09,36.288,-0.596
108.12,24.567,-1.489
108.15,12.599,-1.294
108.19,3.369,-0.882
108.22,-2.667,-0.619
108.25,-5.721,-0.206
108.28,-5.37,0.16
108.32,-4.176,0.023
108.35,-4.597,-0.229
108.38,-6.773,-0.401
108.41,-10.739,-0.676
108.45,-16.46,-0.79
108.48,-21.513,-0.63
108.51,-25.233,-0.515
108.54,-28.708,-0.642
108.58,-32.779,-0.813
108.61,-36.499,-0.768
108.64,-38.956,-0.71
108.67,-41.202,-0.836
108.71,-44.009,-0.916
108.74,-46.712,-0.894
108.77,-49.519,-0.974
108.8,-53.45,-1.111
108.84,-58.047,-0.974
108.87,-61.803,-0.779
108.9,-64.575,-0.779
108.93,-67.769,-0.939
108.97,-71.349,-0.916
109.0,-74.367,-0.928
109.03,-77.666,-1.042
109.06,-81.667,-1.134
109.1,-85.527,-1.134
109.13,-88.896,-1.226
109.16,-92.616,-1.375
109.19,-96.617,-1.375
109.23,-100.021,-1.26
109.26,-102.899,-1.352
109.29,-105.988,-1.524
109.32,-109.602,-1.604
109.36,-113.322,-1.546
109.39,-116.762,-1.604
109.42,-120.271,-1.753
109.45,-123.851,-1.833
109.49,-127.431,-1.799
109.52,-130.344,-1.764
109.55,-133.116,-1.936
109.58,-136.766,-2.165
109.62,-140.732,-2.234
109.65,-144.347,-2.314
109.68,-148.137,-2.44
109.71,-151.085,-2.348
109.75,-153.015,-2.417
109.78,-156.139,-2.6
109.81,-159.894,-2.52
109.84,-162.631,-2.429
109.88,-165.228,-2.704
109.91,-169.194,-2.875
109.94,-172.142,-2.6
109.98,-173.932,-2.658
110.01,-176.389,-2.887
110.04,-179.337,-3.036
110.07,-182.39,-3.093
110.11,-185.338,-3.093
110.14,-188.496,-3.219
110.17,-191.444,-3.379
110.2,-193.831,-3.517
110.24,-196.042,-3.677
110.27,-198.569,-3.815
110.3,-200.85,-3.872
110.33,-203.166,-3.941
110.37,-205.939,-3.987
110.4,-208.746,-3.998
110.43,-210.957,-4.055
110.46,-213.063,-4.181
110.5,-215.309,-4.261
110.53,-217.31,-4.376
110.56,-219.205,-4.548
110.59,-221.416,-4.697
110.63,-224.118,-4.788
110.66,-226.505,-4.777
110.69,-228.435,-4.857
110.72,-230.681,-4.972
110.76,-232.822,-4.96
110.79,-234.822,-4.914
110.82,-236.612,-4.869
110.85,-238.297,-4.949
110.89,-240.437,-5.052
110.92,-242.543,-5.04
110.95,-244.298,-5.04
110.98,-246.368,-5.121
111.02,-248.193,-5.166
111.05,-249.808,-5.212
111.08,-251.738,-5.178
111.11,-253.423,-5.155
111.15,-255.142,-5.212
111.18,-256.792,-5.235
111.21,-258.406,-5.27
111.24,-260.512,-5.27
111.28,-261.88,-5.212
111.31,-263.004,-5.304
111.34,-264.618,-5.327
111.37,-266.373,-5.327
111.41,-268.022,-5.315
111.44,-269.11,-5.304
111.47,-270.163,-5.361
111.5,-271.777,-5.396
111.54,-273.216,-5.315
111.57,-274.059,-5.258
111.6,-274.76,-5.27
111.63,-275.813,-5.304
111.67,-277.182,-5.315
111.7,-278.656,-5.361
111.73,-280.13,-5.441
111.77,-281.569,-5.59
111.8,-282.903,-5.625
111.83,-284.026,-5.59
111.86,-285.219,-5.522
111.9,-286.166,-5.499
111.93,-287.149,-5.51
111.96,-288.342,-5.522
111.99,-289.571,-5.476
112.03,-290.553,-5.476
112.06,-291.325,-5.499
112.09,-291.852,-5.487
112.12,-292.484,-5.407
112.16,-292.764,-5.27
112.19,-292.94,-5.247
112.22,-293.642,-5.327
112.25,-294.449,-5.338
112.29,-294.835,-5.315
112.32,-295.116,-5.315
112.35,-295.467,-5.35
112.38,-295.782,-5.338
112.42,-295.572,-5.189
112.45,-295.116,-5.098
112.48,-295.712,-5.178
112.51,-296.133,-5.155
112.55,-296.063,-5.224
112.58,-296.098,-5.155
112.61,-296.028,-5.178
112.64,-296.484,-5.178
112.68,-295.256,-4.949
112.71,-294.519,-4.995
112.74,-295.186,-4.972
112.77,-295.186,-4.914
112.81,-294.379,-4.949
112.84,-293.782,-4.949
112.87,-292.975,-4.788
112.9,-291.711,-4.617
112.94,-290.483,-4.525
112.97,-289.676,-4.571
113.0,-289.5,-4.617
113.03,-289.114,-4.628
113.07,-288.272,-4.639
113.1,-287.219,-4.651
113.13,-285.815,-4.548
113.16,-284.412,-4.422
113.2,-283.324,-4.284
113.23,-282.06,-4.193
113.26,-280.762,-4.239
113.29,-279.604,-4.216
113.33,-278.34,-4.181
113.36,-277.112,-4.135
113.39,-275.252,-4.021
113.43,-273.006,-3.987
113.46,-271.602,-3.918
113.49,-270.374,-3.849
113.52,-268.864,-3.815
113.56,-267.004,-3.803
113.59,-265.32,-3.861
113.62,-264.197,-3.849
113.65,-262.617,-3.712
113.69,-260.617,-3.712
113.72,-259.319,-3.78
113.75,-257.915,-3.723
113.78,-256.406,-3.666
113.82,-254.967,-3.586
113.85,-253.107,-3.563
113.88,-251.773,-3.631
113.91,-250.299,-3.505
113.95,-248.334,-3.379
113.98,-246.404,-3.299
114.01,-244.263,-3.219
114.04,-241.946,-3.139
114.08,-239.911,-3.036
114.11,-238.472,-3.001
114.14,-236.577,-2.921
114.17,-233.804,-2.898
114.21,-231.804,-2.944
114.24,-230.4,-2.864
114.27,-228.329,-2.772
114.3,-226.189,-2.761
114.34,-224.329,-2.795
114.37,-222.574,-2.772
114.4,-220.573,-2.738
114.43,-218.257,-2.612
114.47,-215.765,-2.52
114.5,-213.239,-2.497
114.53,-210.396,-2.555
114.56,-208.22,-2.669
114.6,-206.746,-2.543
114.63,-204.219,-2.314
114.66,-200.674,-2.325
114.69,-197.481,-2.52
114.73,-195.235,-2.509
114.76,-192.813,-2.268
114.79,-189.444,-2.188
114.82,-186.285,-2.394
114.86,-184.074,-2.417
114.89,-181.758,-2.211
114.92,-178.705,-2.073
114.95,-175.827,-2.051
114.99,-172.984,-1.947
115.02,-169.72,-1.81
115.05,-166.351,-1.741
115.08,-163.649,-1.764
115.12,-161.052,-1.661
115.15,-157.683,-1.443
115.18,-153.577,-1.26
115.22,-149.471,-1.249
115.25,-146.066,-1.237
115.28,-142.978,-1.294
115.31,-140.135,-1.249
115.35,-137.889,-1.294
115.38,-135.854,-1.18
115.41,-132.133,-0.928
115.44,-128.378,-1.1
115.48,-125.781,-1.1
115.51,-123.009,-0.916
115.54,-119.183,-0.733
115.57,-115.077,-0.79
115.61,-112.164,-0.939
115.64,-109.181,-0.664
115.67,-105.215,-0.653
115.7,-103.882,-1.088
115.74,-103.18,-0.882
115.77,-100.162,-0.584
115.8,-96.687,-0.584
115.83,-93.108,-0.515
115.87,-88.896,-0.378
115.9,-84.404,-0.332
115.93,-80.122,-0.298
115.96,-75.56,-0.252
116.0,-70.647,-0.172
116.03,-65.804,-0.172
116.06,-61.346,-0.195
116.09,-57.346,-0.321
116.13,-53.731,-0.332
116.16,-50.291,-0.298
116.19,-46.606,-0.195
116.22,-42.43,-0.069
116.26,-38.394,0.057
116.29,-34.604,0.137
116.32,-31.726,-0.046
116.35,-32.849,-0.687
116.39,-34.92,-0.332
116.42,-28.743,1.157
116.45,-17.126,1.386
116.48,-7.826,0.939
116.52,-0.175,0.894
116.55,5.58,0.584
116.58,7.089,0.0
116.61,6.071,-0.069
