Trigger_Date,2023/06/15
Trigger_Time,T 17:45:05.767 PDT
Samples_Per_Cycle,512
Microseconds_Per_Sample,32.568
Time (ms),Voltage (V),Current (A)
-16.67,1.72,0.481
-16.64,5.229,0.493
-16.61,7.791,0.435
-16.58,9.932,0.664
-16.54,12.178,1.077
-16.51,14.88,1.478
-16.48,17.863,1.913
-16.45,21.935,2.28
-16.41,26.918,2.577
-16.38,31.831,2.761
-16.35,36.359,2.784
-16.32,40.079,2.807
-16.28,43.694,2.933
-16.25,47.554,3.024
-16.22,51.414,3.093
-16.19,55.24,3.116
-16.15,58.644,3.139
-16.12,61.522,3.219
-16.09,64.435,3.276
-16.06,67.418,3.402
-16.02,70.752,3.608
-15.99,74.297,3.712
-15.96,77.56,3.757
-15.93,80.544,3.861
-15.89,83.667,4.021
-15.86,87.177,4.296
-15.83,91.283,4.513
-15.8,95.354,4.617
-15.76,98.933,4.685
-15.73,102.057,4.777
-15.7,105.075,4.823
-15.67,108.023,4.914
-15.63,111.076,5.018
-15.6,114.34,5.166
-15.57,117.885,5.327
-15.53,121.359,5.43
-15.5,124.658,5.567
-15.47,127.747,5.602
-15.44,130.624,5.625
-15.4,133.327,5.762
-15.37,136.345,5.911
-15.34,139.609,6.049
-15.31,143.083,6.186
-15.27,147.365,6.507
-15.24,150.769,6.461
-15.21,153.682,6.369
-15.18,156.665,6.736
-15.14,160.21,6.782
-15.11,163.193,6.644
-15.08,165.298,6.598
-15.05,167.685,6.805
-15.01,170.387,6.919
-14.98,173.09,6.873
-14.95,175.546,6.965
-14.92,177.827,7.137
-14.88,180.284,7.171
-14.85,183.127,7.309
-14.82,186.531,7.584
-14.79,190.286,7.767
-14.75,193.866,7.813
-14.72,196.849,7.847
-14.69,199.306,7.836
-14.66,201.447,7.813
-14.62,203.412,7.801
-14.59,205.623,7.847
-14.56,207.904,7.939
-14.53,210.22,7.996
-14.49,212.361,7.985
-14.46,214.186,8.019
-14.43,215.8,8.053
-14.4,216.502,7.778
-14.36,217.625,7.916
-14.33,220.468,8.557
-14.3,224.083,8.546
-14.26,226.75,8.408
-14.23,227.943,8.454
-14.2,229.523,8.557
-14.17,231.207,8.557
-14.13,233.067,8.5
-14.1,234.682,8.569
-14.07,236.647,8.706
-14.04,238.928,8.786
-14.0,241.139,8.924
-13.97,243.35,8.993
-13.94,245.386,8.981
-13.91,246.93,8.924
-13.87,247.948,8.786
-13.84,249.071,8.855
-13.81,250.826,9.027
-13.78,253.282,9.164
-13.74,255.598,9.176
-13.71,257.388,9.187
-13.68,259.319,9.348
-13.65,261.003,9.325
-13.61,262.056,9.038
-13.58,262.828,9.096
-13.55,264.548,9.348
-13.52,266.829,9.405
-13.48,269.005,9.428
-13.45,271.005,9.52
-13.42,272.655,9.508
-13.39,273.392,9.268
-13.35,273.322,9.027
-13.32,273.427,9.119
-13.29,274.69,9.313
-13.26,276.55,9.382
-13.22,278.445,9.451
-13.19,280.481,9.646
-13.16,282.587,9.76
-13.12,284.236,9.657
-13.09,285.359,9.565
-13.06,286.342,9.588
-13.03,287.535,9.565
-12.99,288.904,9.474
-12.96,290.167,9.52
-12.93,291.431,9.577
-12.9,292.448,9.462
-12.86,292.905,9.313
-12.83,292.834,9.21
-12.8,292.484,9.096
-12.77,291.782,8.924
-12.73,291.641,9.038
-12.7,292.484,9.325
-12.67,294.554,9.577
-12.64,297.888,10.092
-12.6,302.205,10.459
-12.57,306.487,10.528
-12.54,310.277,10.619
-12.51,313.506,10.516
-12.47,315.366,10.069
-12.44,315.295,9.542
-12.41,313.12,8.809
-12.38,309.259,8.065
-12.34,304.556,7.652
-12.31,300.731,7.629
-12.28,298.52,7.881
-12.25,297.748,8.225
-12.21,297.888,8.569
-12.18,298.415,8.867
-12.15,298.344,8.867
-12.12,296.835,8.626
-12.08,294.308,8.397
-12.05,291.817,8.328
-12.02,289.886,8.294
-11.99,288.553,8.34
-11.95,287.851,8.523
-11.92,287.465,8.706
-11.89,286.763,8.626
-11.85,284.833,8.351
-11.82,281.99,8.156
-11.79,279.288,8.133
-11.76,277.182,8.122
-11.72,275.919,8.237
-11.69,275.357,8.443
-11.66,275.076,8.569
-11.63,274.304,8.5
-11.59,272.374,8.305
-11.56,269.882,8.133
-11.53,267.32,8.03
-11.5,265.425,8.03
-11.46,264.162,8.122
-11.43,263.214,8.214
-11.4,262.337,8.237
-11.37,261.354,8.259
-11.33,259.88,8.156
-11.3,257.704,7.916
-11.27,255.037,7.71
-11.24,252.58,7.698
-11.2,251.001,7.847
-11.17,250.299,7.916
-11.14,249.702,7.927
-11.11,248.544,7.927
-11.07,246.79,7.778
-11.04,244.403,7.515
-11.01,241.841,7.423
-10.98,239.806,7.446
-10.94,238.367,7.458
-10.91,236.717,7.343
-10.88,234.787,7.263
-10.85,232.401,7.183
-10.81,229.417,6.908
-10.78,226.259,6.805
-10.75,223.17,6.736
-10.71,220.924,6.782
-10.68,219.731,7.034
-10.65,219.064,7.08
-10.62,217.941,6.988
-10.58,216.116,6.908
-10.55,213.73,6.747
-10.52,210.852,6.564
-10.49,208.15,6.404
-10.45,205.869,6.415
-10.42,204.079,6.427
-10.39,202.57,6.415
-10.36,201.341,6.461
-10.32,199.657,6.312
-10.29,196.919,5.957
-10.26,193.304,5.693
-10.23,190.251,5.751
-10.19,185.022,5.029
-10.16,172.177,2.509
-10.13,155.858,1.73
-10.1,146.558,3.631
-10.06,148.347,5.189
-10.03,155.753,5.911
-10.0,161.403,6.358
-9.97,162.175,6.163
-9.93,160.034,6.037
-9.9,158.841,6.278
-9.87,159.508,6.197
-9.84,159.367,5.579
-9.8,156.841,4.949
-9.77,152.699,4.605
-9.74,148.418,4.33
-9.71,144.171,3.975
-9.67,139.819,3.666
-9.64,135.924,3.586
-9.61,133.151,3.769
-9.57,131.537,3.964
-9.54,130.379,3.941
-9.51,128.729,3.895
-9.48,126.167,3.735
-9.44,122.763,3.414
-9.41,119.008,3.208
-9.38,115.744,3.196
-9.35,113.358,3.173
-9.31,111.041,3.024
-9.28,108.128,2.795
-9.25,104.408,2.555
-9.22,99.951,2.28
-9.18,94.897,1.97
-9.15,89.914,1.741
-9.12,85.387,1.707
-9.09,81.807,1.741
-9.05,78.754,1.673
-9.02,75.42,1.501
-8.99,71.629,1.386
-8.96,67.664,1.283
-8.92,63.593,1.134
-8.89,59.767,1.065
-8.86,56.609,1.1
-8.83,53.941,1.088
-8.79,51.204,0.974
-8.76,48.326,0.882
-8.73,45.132,0.722
-8.7,41.553,0.55
-8.66,37.447,0.309
-8.63,33.165,0.092
-8.6,29.164,0.115
-8.57,25.69,0.115
-8.53,22.285,-0.034
-8.5,18.46,-0.103
-8.47,14.635,-0.069
-8.44,11.336,-0.034
-8.4,8.107,-0.023
-8.37,4.597,0.011
-8.34,1.299,-0.195
-8.3,-2.492,-0.458
-8.27,-6.738,-0.561
-8.24,-10.529,-0.664
-8.21,-13.863,-0.905
-8.17,-16.53,-1.226
-8.14,-19.127,-1.627
-8.11,-22.391,-2.108
-8.08,-27.269,-2.44
-8.04,-32.603,-2.394
-8.01,-36.324,-2.371
-7.98,-39.131,-2.417
-7.95,-41.833,-2.497
-7.91,-44.852,-2.726
-7.88,-48.607,-2.887
-7.85,-52.502,-2.99
-7.82,-56.152,-3.036
-7.78,-59.416,-3.196
-7.75,-62.926,-3.391
-7.72,-66.646,-3.551
-7.69,-70.296,-3.631
-7.65,-73.84,-3.746
-7.62,-77.139,-3.838
-7.59,-80.333,-3.906
-7.56,-83.351,-4.009
-7.52,-86.65,-4.204
-7.49,-90.475,-4.376
-7.46,-94.16,-4.536
-7.43,-97.74,-4.582
-7.39,-100.758,-4.639
-7.36,-103.461,-4.731
-7.33,-106.374,-4.834
-7.3,-109.602,-4.96
-7.26,-113.007,-5.155
-7.23,-116.481,-5.258
-7.2,-120.026,-5.464
-7.16,-123.395,-5.567
-7.13,-126.237,-5.51
-7.1,-128.835,-5.625
-7.07,-131.783,-5.797
-7.03,-134.941,-5.9
-7.0,-138.275,-6.049
-6.97,-142.065,-6.289
-6.94,-146.136,-6.495
-6.9,-149.751,-6.518
-6.87,-152.734,-6.484
-6.84,-155.753,-6.656
-6.81,-159.052,-6.816
-6.77,-162.245,-6.782
-6.74,-165.088,-6.839
-6.71,-168.211,-7.102
-6.68,-172.002,-7.24
-6.64,-175.371,-7.206
-6.61,-178.073,-7.228
-6.58,-180.214,-7.183
-6.55,-182.039,-7.102
-6.51,-183.618,-7.137
-6.48,-185.97,-7.343
-6.45,-189.198,-7.606
-6.42,-193.024,-7.847
-6.38,-196.674,-7.939
-6.35,-199.586,-7.939
-6.32,-201.833,-7.927
-6.29,-203.658,-7.847
-6.25,-205.167,-7.767
-6.22,-206.816,-7.859
-6.19,-209.308,-8.076
-6.16,-212.186,-8.168
-6.12,-214.607,-8.156
-6.09,-216.257,-8.145
-6.06,-217.38,-8.145
-6.03,-218.748,-8.111
-5.99,-220.363,-8.214
-5.96,-222.609,-8.42
-5.93,-225.136,-8.615
-5.89,-228.049,-8.729
-5.86,-230.47,-8.729
-5.83,-232.19,-8.683
-5.8,-233.453,-8.592
-5.76,-234.647,-8.58
-5.73,-236.507,-8.809
-5.7,-239.244,-8.958
-5.67,-241.841,-9.038
-5.63,-244.052,-9.038
-5.6,-245.807,-9.038
-5.57,-247.281,-8.924
-5.54,-248.86,-9.016
-5.5,-250.404,-9.061
-5.47,-252.054,-9.096
-5.44,-254.054,-9.256
-5.41,-256.09,-9.29
-5.37,-257.774,-9.279
-5.34,-259.354,-9.302
-5.31,-260.968,-9.325
-5.28,-261.916,-9.187
-5.24,-262.933,-9.222
-5.21,-264.723,-9.451
-5.18,-267.039,-9.462
-5.15,-268.619,-9.416
-5.11,-269.637,-9.336
-5.08,-270.233,-9.336
-5.05,-271.04,-9.371
-5.02,-272.269,-9.382
-4.98,-273.743,-9.474
-4.95,-275.603,-9.668
-4.92,-277.744,-9.783
-4.89,-279.814,-9.806
-4.85,-281.674,-9.806
-4.82,-283.218,-9.772
-4.79,-284.061,-9.577
-4.75,-284.447,-9.439
-4.72,-285.008,-9.428
-4.69,-285.886,-9.462
-4.66,-287.044,-9.485
-4.62,-288.342,-9.6
-4.59,-289.676,-9.646
-4.56,-290.799,-9.634
-4.53,-291.536,-9.577
-4.49,-292.062,-9.508
-4.46,-292.133,-9.394
-4.43,-291.852,-9.21
-4.4,-291.782,-9.279
-4.36,-292.273,-9.382
-4.33,-293.396,-9.485
-4.3,-294.133,-9.451
-4.27,-294.449,-9.405
-4.23,-294.87,-9.531
-4.2,-295.361,-9.439
-4.17,-295.256,-9.256
-4.14,-295.01,-9.245
-4.1,-295.432,-9.405
-4.07,-296.063,-9.394
-4.04,-296.169,-9.21
-4.01,-295.642,-9.13
-3.97,-294.975,-9.119
-3.94,-294.273,-8.947
-3.91,-293.256,-8.878
-3.88,-292.834,-9.073
-3.84,-293.256,-9.279
-3.81,-293.782,-9.256
-3.78,-293.536,-9.119
-3.75,-292.273,-8.924
-3.71,-290.378,-8.729
-3.68,-288.448,-8.603
-3.65,-286.938,-8.649
-3.62,-286.552,-8.821
-3.58,-286.728,-8.935
-3.55,-286.517,-8.912
-3.52,-285.464,-8.798
-3.48,-283.499,-8.603
-3.45,-280.902,-8.385
-3.42,-278.516,-8.259
-3.39,-276.62,-8.305
-3.35,-275.673,-8.523
-3.32,-275.392,-8.615
-3.29,-274.76,-8.615
-3.26,-273.708,-8.649
-3.22,-272.058,-8.534
-3.19,-269.847,-8.237
-3.16,-267.32,-8.145
-3.13,-265.425,-8.225
-3.09,-264.091,-8.214
-3.06,-262.828,-8.156
-3.03,-261.459,-8.237
-3.0,-260.196,-8.259
-2.96,-258.511,-8.122
-2.93,-256.3,-7.893
-2.9,-253.879,-7.893
-2.87,-252.194,-7.985
-2.83,-250.966,-7.962
-2.8,-249.422,-7.824
-2.77,-247.527,-7.767
-2.74,-245.631,-7.767
-2.7,-243.561,-7.664
-2.67,-240.858,-7.297
-2.64,-238.297,-7.423
-2.61,-236.612,-7.606
-2.57,-235.173,-7.48
-2.54,-233.032,-7.263
-2.51,-231.313,-7.48
-2.48,-230.33,-7.687
-2.44,-228.996,-7.343
-2.41,-226.154,-7.022
-2.38,-223.346,-7.114
-2.34,-221.521,-7.137
-2.31,-219.942,-7.011
-2.28,-218.362,-6.999
-2.25,-216.643,-7.011
-2.21,-214.783,-6.908
-2.18,-212.361,-6.656
-2.15,-209.203,-6.449
-2.12,-206.149,-6.392
-2.08,-203.833,-6.415
-2.05,-202.254,-6.438
-2.02,-200.815,-6.449
-1.99,-199.236,-6.404
-1.95,-197.13,-6.255
-1.92,-194.287,-6.003
-1.89,-191.058,-5.819
-1.86,-188.04,-5.716
-1.82,-185.268,-5.613
-1.79,-182.776,-5.567
-1.76,-180.775,-5.625
-1.73,-178.81,-5.533
-1.69,-175.967,-5.292
-1.66,-172.423,-5.098
-1.63,-168.983,-5.04
-1.6,-165.755,-4.926
-1.56,-162.596,-4.766
-1.53,-159.789,-4.777
-1.5,-158.069,-5.006
-1.47,-155.998,-4.685
-1.43,-152.594,-4.342
-1.4,-148.663,-4.387
-1.37,-145.68,-4.319
-1.34,-143.153,-4.204
-1.3,-140.381,-4.055
-1.27,-137.187,-3.861
-1.24,-133.923,-3.826
-1.21,-131.01,-3.792
-1.17,-128.168,-3.62
-1.14,-124.939,-3.471
-1.11,-121.394,-3.288
-1.07,-117.674,-3.15
-1.04,-114.235,-3.093
-1.01,-111.322,-3.059
-0.98,-108.76,-2.978
-0.94,-105.637,-2.772
-0.91,-101.846,-2.543
-0.88,-97.459,-2.234
-0.85,-92.511,-1.97
-0.81,-87.457,-1.741
-0.78,-82.895,-1.673
-0.75,-79.175,-1.684
-0.72,-75.946,-1.673
-0.68,-72.787,-1.627
-0.65,-69.629,-1.546
-0.62,-66.154,-1.409
-0.59,-62.329,-1.191
-0.55,-58.398,-1.1
-0.52,-55.064,-1.111
-0.49,-52.187,-1.077
-0.46,-49.344,-0.951
-0.42,-46.22,-0.813
-0.39,-42.992,-0.71
-0.36,-39.658,-0.584
-0.33,-36.078,-0.378
-0.29,-32.498,-0.286
-0.26,-29.024,-0.172
-0.23,-25.549,-0.057
-0.2,-22.145,0.069
-0.16,-18.6,0.183
-0.13,-14.951,0.252
-0.1,-11.266,0.309
-0.07,-7.3,0.504
-0.03,-2.808,0.687
0.0,2.071,0.722
0.03,6.422,0.676
0.07,9.792,0.71
0.1,12.248,0.859
0.13,14.178,1.134
0.16,16.389,1.661
0.2,19.934,2.188
0.23,24.847,2.303
0.26,29.129,2.337
0.29,32.814,2.486
0.33,35.902,2.543
0.36,39.026,2.623
0.39,42.535,2.749
0.42,46.326,2.875
0.46,50.081,2.978
0.49,53.731,3.036
0.52,57.065,3.139
0.55,60.399,3.299
0.59,63.838,3.414
0.62,67.383,3.54
0.65,70.822,3.654
0.68,74.226,3.723
0.72,77.28,3.792
0.75,80.368,3.929
0.78,83.702,4.101
0.81,87.492,4.342
0.85,91.212,4.468
0.88,94.933,4.513
0.91,98.232,4.639
0.94,101.636,4.8
0.98,105.145,4.892
1.01,108.374,4.937
1.04,111.427,5.04
1.07,114.796,5.212
1.11,118.376,5.396
1.14,121.921,5.441
1.17,125.15,5.487
1.21,128.062,5.522
1.24,130.94,5.693
1.27,133.958,5.762
1.3,137.292,5.923
1.34,140.486,6.026
1.37,143.961,6.186
1.4,147.646,6.392
1.43,150.945,6.392
1.47,153.717,6.346
1.5,156.349,6.507
1.53,159.157,6.656
1.56,162.0,6.61
1.6,164.456,6.621
1.63,166.913,6.77
1.66,169.65,6.908
1.69,172.633,7.034
1.73,175.581,7.137
1.76,178.249,7.171
1.79,180.635,7.171
1.82,183.127,7.309
1.86,186.285,7.561
1.89,190.216,7.767
1.92,193.936,7.847
1.95,197.095,7.881
1.99,199.551,7.836
2.02,201.447,7.778
2.05,203.201,7.744
2.08,205.202,7.778
2.12,207.518,7.927
2.15,210.08,8.019
2.18,212.291,8.007
2.21,214.186,8.019
2.25,215.555,8.03
2.28,216.783,7.939
2.31,218.011,7.962
2.34,219.836,8.191
2.38,222.574,8.408
2.41,225.346,8.489
2.44,227.803,8.603
2.48,230.225,8.729
2.51,232.365,8.706
2.54,233.208,8.42
2.57,234.296,8.523
2.61,237.068,9.05
2.64,240.402,8.981
2.67,242.613,8.844
2.7,243.806,8.821
2.74,244.824,8.821
2.77,246.158,8.809
2.8,247.807,8.844
2.83,249.141,8.798
2.87,250.755,8.947
2.9,252.931,9.21
2.93,255.493,9.245
2.96,257.458,9.176
3.0,259.038,9.245
3.03,260.371,9.279
3.06,261.635,9.164
3.09,262.968,9.245
3.13,265.039,9.416
3.16,267.25,9.474
3.19,269.321,9.497
3.22,271.216,9.531
3.26,273.006,9.542
3.29,274.094,9.382
3.32,274.445,9.142
3.35,274.725,9.153
3.39,275.708,9.279
3.42,277.112,9.348
3.45,278.831,9.416
3.48,280.727,9.588
3.52,282.587,9.668
3.55,283.955,9.565
3.58,284.868,9.497
3.62,285.78,9.497
3.65,286.763,9.497
3.68,287.886,9.462
3.71,289.22,9.52
3.75,290.623,9.577
3.78,291.782,9.497
3.81,292.308,9.405
3.84,292.519,9.336
3.88,292.484,9.187
3.91,292.659,9.176
3.94,293.817,9.462
3.97,295.818,9.657
4.01,297.888,9.714
4.04,299.467,9.76
4.07,300.626,9.714
4.1,301.187,9.554
4.14,300.134,9.004
4.17,296.906,8.374
4.2,294.238,8.408
4.23,294.063,8.935
4.27,294.238,8.706
4.3,293.536,8.569
4.33,293.291,9.13
4.36,293.993,9.245
4.4,293.712,8.901
4.43,292.694,8.912
4.46,292.378,9.164
4.49,292.87,9.153
4.53,293.01,9.061
4.56,292.659,9.084
4.59,291.992,8.947
4.62,290.729,8.706
4.66,289.114,8.592
4.69,287.289,8.477
4.72,285.64,8.397
4.75,284.482,8.5
4.79,283.604,8.546
4.82,282.552,8.546
4.85,281.358,8.523
4.89,279.955,8.443
4.92,278.094,8.34
4.95,276.27,8.294
4.98,274.69,8.34
5.02,273.637,8.408
5.05,272.76,8.408
5.08,271.918,8.466
5.11,270.865,8.466
5.15,269.321,8.282
5.18,267.426,8.179
5.21,265.741,8.237
5.24,264.688,8.248
5.28,263.565,8.191
5.31,262.372,8.214
5.34,261.284,8.225
5.37,259.845,8.042
5.41,257.388,7.79
5.44,254.546,7.675
5.47,252.124,7.71
5.5,250.264,7.675
5.54,248.088,7.423
5.57,245.877,7.526
5.6,244.157,7.664
5.63,242.122,7.435
5.67,239.139,7.183
5.7,236.858,7.423
5.73,235.77,7.652
5.76,234.717,7.412
5.8,232.787,7.24
5.83,231.067,7.435
5.86,230.084,7.584
5.89,229.417,7.4
5.93,227.592,7.171
5.96,225.276,7.102
5.99,222.855,6.988
6.03,220.573,6.805
6.06,218.117,6.724
6.09,216.081,6.724
6.12,214.186,6.679
6.16,212.045,6.541
6.19,209.554,6.427
6.22,207.027,6.358
6.25,204.64,6.346
6.29,202.464,6.266
6.32,200.394,6.232
6.35,198.744,6.243
6.38,197.06,6.209
6.42,194.778,5.957
6.45,191.655,5.728
6.48,188.672,5.716
6.51,186.145,5.67
6.55,184.004,5.602
6.58,182.214,5.59
6.61,179.688,5.373
6.64,176.038,4.995
6.68,172.002,4.857
6.71,168.668,4.937
6.74,166.106,4.88
6.77,163.474,4.651
6.81,161.052,4.777
6.84,158.595,4.754
6.87,156.244,4.536
6.9,153.612,4.617
6.94,150.734,4.307
6.97,147.646,4.181
7.0,143.75,3.975
7.03,140.276,3.792
7.07,137.398,4.009
7.1,135.538,3.975
7.13,133.292,3.757
7.16,130.133,3.563
7.2,126.483,3.402
7.23,122.763,3.265
7.26,119.254,3.116
7.3,115.849,3.024
7.33,112.796,2.956
7.36,109.848,2.887
7.39,106.479,2.658
7.43,102.127,2.325
7.46,97.249,2.096
7.49,92.406,1.925
7.52,87.668,1.764
7.56,83.211,1.638
7.59,79.28,1.638
7.62,76.122,1.695
7.65,73.103,1.592
7.69,69.629,1.432
7.72,66.119,1.386
7.75,62.75,1.375
7.78,59.557,1.26
7.82,56.503,1.168
7.85,53.696,1.123
7.88,50.853,1.008
7.91,47.624,0.802
7.95,43.694,0.55
7.98,39.447,0.367
8.01,35.201,0.241
8.04,31.235,0.172
8.08,27.515,0.069
8.11,24.04,0.057
8.14,20.601,0.057
8.17,17.197,-0.023
8.21,13.266,-0.137
8.24,9.265,-0.16
8.27,5.264,-0.137
8.3,1.649,-0.069
8.34,-1.685,-0.149
8.37,-4.808,-0.229
8.4,-7.756,-0.367
8.44,-10.493,-0.596
8.47,-13.231,-0.905
8.5,-15.723,-1.237
8.53,-18.355,-1.638
8.57,-21.373,-2.005
8.6,-25.479,-2.314
8.63,-30.743,-2.451
8.66,-35.165,-2.589
8.7,-39.096,-2.704
8.73,-42.711,-2.749
8.76,-46.185,-2.921
8.79,-50.081,-3.07
8.83,-53.871,-3.127
8.86,-57.451,-3.196
8.89,-60.574,-3.253
8.92,-63.768,-3.345
8.96,-66.927,-3.46
8.99,-70.226,-3.62
9.02,-73.665,-3.735
9.05,-76.964,-3.838
9.09,-80.157,-3.952
9.12,-83.421,-4.113
9.15,-87.001,-4.296
9.18,-90.756,-4.445
9.22,-94.476,-4.605
9.25,-98.056,-4.697
9.28,-101.25,-4.777
9.31,-104.338,-4.846
9.35,-107.356,-4.926
9.38,-110.725,-5.155
9.41,-114.516,-5.361
9.44,-118.411,-5.407
9.48,-121.991,-5.567
9.51,-125.571,-5.705
9.54,-128.624,-5.682
9.57,-131.502,-5.762
9.61,-134.731,-5.968
9.64,-138.1,-5.968
9.67,-141.258,-6.129
9.71,-144.698,-6.312
9.74,-148.383,-6.449
9.77,-152.032,-6.564
9.8,-154.875,-6.507
9.84,-156.63,-6.243
9.87,-158.595,-6.564
9.9,-161.754,-6.896
9.93,-165.439,-6.839
9.97,-168.317,-6.805
10.0,-171.23,-7.091
10.03,-174.353,-7.274
10.06,-177.196,-7.171
10.1,-179.407,-7.137
10.13,-181.407,-7.24
10.16,-183.688,-7.286
10.19,-186.496,-7.469
10.23,-189.935,-7.744
10.26,-193.726,-7.893
10.29,-197.06,-7.893
10.32,-199.657,-7.87
10.36,-201.552,-7.847
10.39,-203.271,-7.813
10.42,-205.026,-7.755
10.45,-207.097,-7.859
10.49,-209.483,-8.065
10.52,-212.115,-8.133
10.55,-214.291,-8.099
10.58,-215.871,-8.099
10.62,-217.204,-8.088
10.65,-218.608,-8.053
10.68,-220.117,-8.156
10.71,-222.258,-8.397
10.75,-224.925,-8.557
10.78,-227.698,-8.626
10.81,-229.874,-8.695
10.85,-231.488,-8.592
10.88,-232.646,-8.511
10.91,-233.945,-8.649
10.94,-236.015,-8.821
10.98,-238.577,-8.878
11.01,-240.437,-8.798
11.04,-242.297,-8.935
11.07,-244.824,-9.187
11.11,-246.965,-9.061
11.14,-248.158,-8.912
11.17,-249.281,-9.016
11.2,-250.966,-9.119
11.24,-252.791,-9.096
11.27,-254.686,-9.164
11.3,-256.862,-9.371
11.33,-259.073,-9.439
11.37,-260.828,-9.29
11.4,-261.74,-9.187
11.43,-262.723,-9.268
11.46,-264.337,-9.325
11.5,-266.232,-9.382
11.53,-268.198,-9.462
11.56,-270.268,-9.531
11.59,-271.988,-9.508
11.63,-273.111,-9.416
11.66,-273.883,-9.313
11.69,-274.515,-9.29
11.72,-275.357,-9.336
11.76,-276.62,-9.371
11.79,-278.13,-9.439
11.82,-279.849,-9.6
11.85,-281.674,-9.623
11.89,-282.867,-9.554
11.92,-283.78,-9.542
11.95,-284.692,-9.508
11.99,-285.57,-9.451
12.02,-286.798,-9.485
12.05,-288.237,-9.6
12.08,-289.781,-9.6
12.12,-290.974,-9.577
12.15,-291.641,-9.508
12.18,-291.992,-9.371
12.21,-292.027,-9.21
12.25,-291.606,-9.096
12.28,-291.571,-9.199
12.31,-292.554,-9.462
12.34,-293.677,-9.348
12.38,-293.993,-9.268
12.41,-294.344,-9.405
12.44,-295.361,-9.554
12.47,-295.712,-9.256
12.51,-295.186,-9.061
12.54,-295.326,-9.348
12.57,-296.66,-9.52
12.6,-297.397,-9.222
12.64,-297.397,-9.176
12.67,-297.256,-9.245
12.7,-296.66,-9.027
12.73,-295.256,-8.741
12.77,-293.607,-8.683
12.8,-292.975,-8.878
12.83,-293.361,-9.027
12.86,-293.782,-8.993
12.9,-293.291,-8.89
12.93,-291.922,-8.798
12.96,-290.343,-8.615
12.99,-288.623,-8.523
13.03,-287.184,-8.534
13.06,-286.517,-8.603
13.09,-286.201,-8.752
13.12,-285.745,-8.763
13.16,-284.798,-8.626
13.19,-282.903,-8.466
13.22,-280.586,-8.282
13.26,-278.2,-8.168
13.29,-276.305,-8.259
13.32,-275.603,-8.431
13.35,-275.427,-8.511
13.39,-274.585,-8.5
13.42,-273.392,-8.466
13.45,-271.812,-8.351
13.48,-269.777,-8.156
13.52,-267.496,-8.042
13.55,-265.565,-8.042
13.58,-264.091,-8.053
13.61,-262.653,-8.042
13.65,-261.179,-8.042
13.68,-259.634,-7.985
13.71,-257.529,-7.87
13.74,-254.616,-7.618
13.78,-252.229,-7.687
13.81,-251.141,-8.042
13.84,-250.439,-7.893
13.87,-248.72,-7.664
13.91,-246.088,-7.606
13.94,-243.982,-7.629
13.97,-242.297,-7.584
14.0,-240.578,-7.48
14.04,-238.577,-7.515
14.07,-237.209,-7.561
14.1,-235.91,-7.538
14.13,-234.085,-7.343
14.17,-232.225,-7.354
14.2,-230.962,-7.503
14.23,-229.347,-7.228
14.26,-226.54,-6.85
14.3,-223.451,-6.839
14.33,-221.205,-6.942
14.36,-219.626,-6.828
14.4,-217.976,-6.782
14.43,-216.187,-6.828
14.46,-214.397,-6.747
14.49,-212.045,-6.53
14.53,-209.062,-6.323
14.56,-206.184,-6.243
14.59,-203.763,-6.22
14.62,-202.008,-6.266
14.66,-200.604,-6.346
14.69,-199.165,-6.266
14.72,-197.27,-6.083
14.75,-194.392,-5.888
14.79,-191.023,-5.659
14.82,-187.689,-5.522
14.85,-184.882,-5.499
14.88,-182.6,-5.464
14.92,-180.74,-5.487
14.95,-178.74,-5.43
14.98,-175.897,-5.189
15.01,-172.318,-4.972
15.05,-168.738,-4.926
15.08,-165.825,-4.823
15.11,-162.947,-4.651
15.14,-160.175,-4.605
15.18,-158.244,-4.869
15.21,-155.998,-4.617
15.24,-152.699,-4.204
15.27,-148.874,-4.239
15.31,-145.715,-4.193
15.34,-143.188,-4.09
15.37,-140.556,-3.998
15.4,-137.749,-3.872
15.44,-134.731,-3.757
15.47,-131.747,-3.666
15.5,-128.554,-3.54
15.53,-125.114,-3.345
15.57,-121.605,-3.162
15.6,-118.06,-3.07
15.63,-114.761,-2.967
15.67,-111.638,-2.875
15.7,-108.725,-2.795
15.73,-105.18,-2.566
15.76,-101.144,-2.325
15.8,-96.722,-2.142
15.83,-92.336,-1.947
15.86,-87.773,-1.73
15.89,-83.421,-1.638
15.93,-79.596,-1.627
15.96,-76.227,-1.615
15.99,-73.138,-1.512
16.02,-69.839,-1.443
16.06,-66.365,-1.317
16.09,-62.68,-1.134
16.12,-58.784,-1.02
16.15,-55.24,-0.951
16.19,-52.187,-0.951
16.22,-49.484,-0.859
16.25,-46.396,-0.699
16.28,-43.097,-0.573
16.32,-39.552,-0.424
16.35,-35.867,-0.286
16.38,-32.428,-0.206
16.41,-28.989,-0.115
16.45,-25.514,0.057
16.48,-21.619,0.252
16.51,-17.267,0.389
16.54,-12.985,0.47
16.58,-8.914,0.504
16.61,-4.808,0.55
16.64,-0.772,0.573
16.67,3.018,0.458
16.71,5.896,0.458
16.74,8.423,0.653
16.77,11.055,0.951
16.81,13.828,1.306
16.84,16.635,1.684
16.87,19.934,2.085
16.9,24.356,2.291
16.94,28.497,2.417
16.97,32.358,2.566
17.0,36.008,2.658
17.03,39.622,2.715
17.07,43.237,2.784
17.1,46.782,2.967
17.13,50.572,3.036
17.16,54.187,3.059
17.2,57.451,3.139
17.23,60.75,3.276
17.26,64.049,3.379
17.29,67.523,3.517
17.33,70.892,3.643
17.36,74.297,3.735
17.39,77.455,3.803
17.42,80.544,3.906
17.46,83.562,4.032
17.49,86.966,4.284
17.52,90.791,4.468
17.55,94.652,4.559
17.59,98.056,4.662
17.62,101.25,4.766
17.65,104.478,4.869
17.68,107.672,4.96
17.72,110.936,5.063
17.75,114.375,5.247
17.78,117.92,5.407
17.81,121.394,5.499
17.85,124.904,5.636
17.88,128.203,5.728
17.91,131.151,5.751
17.94,134.099,5.865
17.98,137.573,6.163
18.01,141.048,6.175
18.04,144.698,6.278
18.08,148.137,6.484
18.11,151.225,6.438
18.14,153.612,6.392
18.17,156.104,6.541
18.21,158.771,6.656
18.24,161.649,6.656
18.27,164.421,6.747
18.3,167.369,6.954
18.34,170.387,7.057
18.37,173.265,7.102
18.4,175.862,7.148
18.43,178.354,7.194
18.47,180.635,7.228
18.5,183.127,7.354
18.53,186.25,7.595
18.56,189.935,7.801
18.6,193.62,7.939
18.63,196.954,7.973
18.66,199.481,7.939
18.69,201.447,7.881
18.73,203.201,7.824
18.76,205.132,7.847
18.79,207.343,7.996
18.82,209.94,8.088
18.86,212.186,8.076
18.89,214.151,8.099
18.92,215.73,8.111
18.95,216.994,8.007
18.99,218.152,8.065
19.02,219.977,8.271
19.05,222.574,8.5
19.08,225.346,8.626
19.12,227.943,8.683
19.15,230.26,8.786
19.18,232.401,8.809
19.22,233.067,8.466
19.25,233.804,8.466
19.28,236.191,9.061
19.31,239.56,9.084
19.35,242.017,8.901
19.38,243.315,8.97
19.41,244.649,8.993
19.44,246.228,9.027
19.48,247.948,9.038
19.51,249.738,9.084
19.54,251.492,9.107
19.57,252.966,9.142
19.61,254.546,9.21
19.64,256.476,9.325
19.67,258.792,9.416
19.7,260.722,9.428
19.74,262.196,9.302
19.77,263.354,9.325
19.8,265.074,9.508
19.83,267.496,9.565
19.87,269.707,9.565
19.9,271.532,9.588
19.93,273.076,9.6
19.96,274.023,9.428
20.0,274.234,9.21
20.03,274.585,9.245
20.06,275.638,9.359
20.09,277.077,9.439
20.13,278.656,9.497
20.16,280.446,9.657
20.19,282.236,9.737
20.22,283.745,9.668
20.26,284.622,9.554
20.29,285.359,9.577
20.32,286.482,9.565
20.35,287.605,9.531
20.39,288.869,9.6
20.42,290.237,9.68
20.45,291.466,9.611
20.49,292.133,9.508
20.52,292.484,9.428
20.55,292.484,9.29
20.58,292.308,9.21
20.62,292.729,9.336
20.65,294.028,9.542
20.68,295.291,9.531
20.71,295.923,9.439
20.75,296.239,9.474
20.78,296.8,9.497
20.81,297.643,9.497
20.84,297.046,9.107
20.88,295.326,8.729
20.91,295.291,9.382
20.94,296.309,9.382
20.97,296.028,8.809
21.01,294.589,8.89
21.04,293.887,9.153
21.07,293.431,8.97
21.1,292.659,8.809
21.14,292.484,9.119
21.17,293.15,9.302
21.2,293.326,9.13
21.23,292.659,9.038
21.27,291.571,8.993
21.3,290.343,8.844
21.33,288.974,8.672
21.36,287.395,8.603
21.4,286.201,8.66
21.43,285.745,8.786
21.46,285.289,8.763
21.49,284.166,8.672
21.53,282.587,8.569
21.56,280.656,8.42
21.59,278.481,8.328
21.63,276.656,8.34
21.66,275.462,8.489
21.69,274.901,8.58
21.72,274.129,8.569
21.76,273.006,8.511
21.79,271.391,8.42
21.82,269.356,8.282
21.85,267.355,8.145
21.89,265.355,8.156
21.92,263.951,8.156
21.95,262.653,8.111
21.98,261.354,8.156
22.02,260.126,8.225
22.05,258.757,8.122
22.08,256.757,7.927
22.11,254.3,7.824
22.15,252.299,7.847
22.18,250.685,7.801
22.21,248.65,7.652
22.24,246.79,7.71
22.28,245.035,7.732
22.31,242.999,7.549
22.34,240.051,7.274
22.37,237.805,7.458
22.41,236.717,7.698
22.44,235.77,7.538
22.47,234.12,7.458
22.5,232.681,7.584
22.54,231.418,7.561
22.57,229.768,7.286
22.6,227.206,7.08
22.63,224.644,7.045
22.67,222.188,6.931
22.7,219.942,6.828
22.73,217.906,6.816
22.77,216.116,6.816
22.8,214.326,6.747
22.83,212.186,6.598
22.86,209.518,6.427
22.9,206.956,6.381
22.93,204.71,6.381
22.96,202.815,6.346
22.99,201.096,6.346
23.03,199.516,6.312
23.06,197.691,6.209
23.09,195.059,5.957
23.12,191.76,5.693
23.16,188.567,5.648
23.19,185.934,5.648
23.22,183.829,5.59
23.25,182.039,5.602
23.29,180.038,5.544
23.32,177.126,5.258
23.35,173.686,5.052
23.38,170.317,5.04
23.42,167.264,4.926
23.45,164.14,4.651
23.48,160.982,4.639
23.51,158.525,4.788
23.55,156.209,4.651
23.58,153.261,4.387
23.61,149.611,4.204
23.64,146.136,4.193
23.68,142.557,3.964
23.71,139.153,3.838
23.74,136.275,3.998
23.77,133.818,3.838
23.81,131.326,3.757
23.84,128.098,3.54
23.87,124.483,3.391
23.9,121.114,3.368
23.94,118.095,3.265
23.97,115.077,3.093
24.0,112.024,3.024
24.04,109.076,2.967
24.07,105.812,2.726
24.1,101.706,2.429
24.13,97.003,2.199
24.17,92.3,2.028
24.2,87.949,1.89
24.23,83.842,1.764
24.26,80.228,1.741
24.3,76.788,1.661
24.33,73.209,1.524
24.36,69.489,1.455
24.39,66.154,1.455
24.43,63.066,1.398
24.46,59.837,1.214
24.49,56.328,1.077
24.52,52.924,0.997
24.56,49.59,0.916
24.59,46.326,0.768
24.62,42.921,0.642
24.65,39.693,0.573
24.69,36.359,0.515
24.72,33.2,0.367
24.75,29.655,0.195
24.78,25.9,0.115
24.82,22.005,-0.023
24.85,17.899,-0.183
24.88,13.652,-0.252
24.91,9.3,-0.229
24.95,5.019,-0.206
24.98,1.263,-0.126
25.01,-2.0,-0.115
25.04,-5.194,-0.321
25.08,-8.282,-0.458
25.11,-10.634,-0.458
25.14,-12.775,-0.813
25.18,-15.442,-1.432
25.21,-18.951,-1.867
25.24,-22.882,-2.108
25.27,-27.339,-2.429
25.31,-32.428,-2.497
25.34,-36.218,-2.497
25.37,-39.552,-2.577
25.4,-42.746,-2.669
25.44,-45.975,-2.795
25.47,-49.695,-2.944
25.5,-53.204,-3.082
25.53,-56.819,-3.15
25.57,-60.048,-3.23
25.6,-63.312,-3.368
25.63,-66.716,-3.482
25.66,-70.226,-3.677
25.7,-73.911,-3.815
25.73,-77.596,-3.918
25.76,-80.894,-4.032
25.79,-84.193,-4.158
25.83,-87.703,-4.319
25.86,-91.388,-4.456
25.89,-94.933,-4.571
25.92,-98.442,-4.674
25.96,-101.636,-4.777
25.99,-104.689,-4.811
26.02,-107.532,-4.846
26.05,-110.655,-5.052
26.09,-114.024,-5.235
26.12,-117.744,-5.338
26.15,-121.359,-5.487
26.18,-125.009,-5.705
26.22,-128.343,-5.682
26.25,-131.326,-5.751
26.28,-134.485,-5.991
26.31,-137.784,-6.003
26.35,-141.188,-6.163
26.38,-144.733,-6.323
26.41,-148.347,-6.438
26.45,-151.682,-6.484
26.48,-153.787,-6.289
26.51,-155.367,-6.255
26.54,-157.999,-6.679
26.58,-161.789,-6.885
26.61,-165.298,-6.793
26.64,-168.001,-6.828
26.67,-170.738,-7.114
26.71,-173.721,-7.206
26.74,-176.599,-7.137
26.77,-178.986,-7.171
26.8,-181.197,-7.217
26.84,-183.408,-7.263
26.87,-186.18,-7.492
26.9,-189.795,-7.778
26.93,-193.62,-7.904
26.97,-196.919,-7.927
27.0,-199.657,-7.904
27.03,-201.762,-7.881
27.06,-203.693,-7.847
27.1,-205.482,-7.824
27.13,-207.553,-7.927
27.16,-210.01,-8.042
27.19,-212.361,-8.065
27.23,-214.291,-8.053
27.26,-215.871,-8.053
27.29,-217.31,-8.019
27.32,-218.608,-8.053
27.36,-220.187,-8.191
27.39,-222.363,-8.363
27.42,-224.89,-8.5
27.45,-227.417,-8.637
27.49,-229.839,-8.775
27.52,-232.085,-8.729
27.55,-233.453,-8.637
27.59,-234.752,-8.66
27.62,-236.612,-8.763
27.65,-238.718,-8.867
27.68,-241.034,-8.912
27.72,-243.21,-9.038
27.75,-245.0,-8.901
27.78,-246.333,-8.901
27.81,-247.527,-8.89
27.85,-249.281,-9.038
27.88,-251.212,-9.096
27.91,-253.036,-9.038
27.94,-254.546,-9.107
27.98,-256.441,-9.302
28.01,-258.757,-9.416
28.04,-260.898,-9.359
28.07,-262.407,-9.268
28.11,-263.67,-9.302
28.14,-265.179,-9.348
28.17,-267.004,-9.371
28.2,-268.935,-9.416
28.24,-270.865,-9.439
28.27,-272.339,-9.416
28.3,-273.286,-9.302
28.33,-273.848,-9.222
28.37,-274.48,-9.222
28.4,-275.357,-9.313
28.43,-276.691,-9.371
28.46,-278.235,-9.451
28.5,-280.025,-9.6
28.53,-281.815,-9.634
28.56,-283.183,-9.6
28.59,-284.306,-9.554
28.63,-285.289,-9.531
28.66,-286.342,-9.474
28.69,-287.535,-9.508
28.72,-288.974,-9.554
28.76,-290.308,-9.554
28.79,-291.36,-9.554
28.82,-291.957,-9.439
28.86,-292.203,-9.302
28.89,-291.992,-9.222
28.92,-291.817,-9.119
28.95,-292.133,-9.176
28.99,-292.975,-9.428
29.02,-294.098,-9.302
29.05,-294.344,-9.256
29.08,-294.589,-9.394
29.12,-295.642,-9.542
29.15,-295.747,-9.187
29.18,-295.045,-8.947
29.21,-295.116,-9.279
29.25,-296.239,-9.485
29.28,-296.941,-9.245
29.31,-296.87,-9.13
29.34,-296.484,-9.153
29.38,-295.782,-9.004
29.41,-294.414,-8.741
29.44,-293.01,-8.672
29.47,-292.343,-8.878
29.51,-292.975,-9.05
29.54,-293.431,-9.061
29.57,-293.08,-8.981
29.6,-291.817,-8.844
29.64,-290.167,-8.626
29.67,-288.237,-8.546
29.7,-286.938,-8.58
29.73,-286.447,-8.66
29.77,-286.377,-8.809
29.8,-286.061,-8.786
29.83,-284.903,-8.637
29.86,-282.973,-8.489
29.9,-280.656,-8.282
29.93,-278.41,-8.145
29.96,-276.515,-8.202
30.0,-275.462,-8.385
30.03,-275.111,-8.477
30.06,-274.374,-8.489
30.09,-273.286,-8.489
30.13,-271.602,-8.34
30.16,-269.215,-8.053
30.19,-266.724,-7.973
30.22,-264.793,-8.042
30.26,-263.53,-8.088
30.29,-262.372,-8.076
30.32,-261.143,-8.088
30.35,-259.705,-8.133
30.39,-258.125,-8.042
30.42,-255.528,-7.687
30.45,-253.107,-7.687
30.48,-251.527,-7.985
30.52,-250.475,-7.813
30.55,-248.579,-7.595
30.58,-246.158,-7.595
30.61,-244.438,-7.687
30.65,-243.069,-7.641
30.68,-241.385,-7.549
30.71,-239.525,-7.492
30.74,-237.7,-7.503
30.78,-236.05,-7.412
30.81,-234.225,-7.309
30.84,-232.19,-7.263
30.87,-230.014,-7.183
30.91,-227.557,-6.931
30.94,-224.995,-6.908
30.97,-222.047,-6.724
31.0,-219.661,-6.736
31.04,-218.678,-7.137
31.07,-218.468,-7.137
31.1,-217.239,-6.85
31.14,-214.993,-6.747
31.17,-212.186,-6.633
31.2,-209.238,-6.358
31.23,-206.535,-6.243
31.27,-204.289,-6.289
31.3,-202.429,-6.255
31.33,-200.745,-6.22
31.36,-198.92,-6.175
31.4,-196.814,-6.049
31.43,-194.112,-5.854
31.46,-190.848,-5.659
31.49,-187.759,-5.59
31.53,-184.882,-5.51
31.56,-182.6,-5.464
31.59,-180.811,-5.567
31.62,-178.915,-5.476
31.66,-176.073,-5.155
31.69,-172.212,-4.949
31.72,-168.597,-4.926
31.75,-165.685,-4.869
31.79,-162.912,-4.674
31.82,-160.21,-4.628
31.85,-158.244,-4.892
31.88,-155.998,-4.617
31.92,-152.734,-4.273
31.95,-149.049,-4.296
31.98,-145.891,-4.216
32.01,-143.153,-4.067
32.05,-140.311,-3.952
32.08,-137.292,-3.815
32.11,-134.099,-3.723
32.14,-131.081,-3.643
32.18,-128.133,-3.528
32.21,-124.974,-3.345
32.24,-121.429,-3.139
32.27,-117.674,-3.036
32.31,-114.305,-2.944
32.34,-111.147,-2.875
32.37,-108.374,-2.83
32.41,-105.215,-2.612
32.44,-101.46,-2.337
32.47,-96.828,-2.131
32.5,-92.02,-1.936
32.54,-87.352,-1.718
32.57,-83.07,-1.627
32.6,-79.385,-1.627
32.63,-76.122,-1.569
32.67,-72.893,-1.478
32.7,-69.489,-1.455
32.73,-66.084,-1.375
32.76,-62.575,-1.168
32.8,-58.995,-1.054
32.83,-55.661,-1.02
32.86,-52.643,-0.962
32.89,-49.554,-0.825
32.93,-46.255,-0.653
32.96,-42.851,-0.55
32.99,-39.201,-0.424
33.02,-35.411,-0.229
33.06,-31.761,-0.137
33.09,-28.181,-0.057
33.12,-24.637,0.034
33.15,-21.092,0.149
33.19,-17.477,0.275
33.22,-13.617,0.401
33.25,-9.581,0.504
33.28,-5.405,0.596
33.32,-1.263,0.63
33.35,2.386,0.504
33.38,5.405,0.47
33.41,8.353,0.756
33.45,11.476,1.077
33.48,14.529,1.306
33.51,17.477,1.741
33.55,20.811,2.165
33.58,24.883,2.131
33.61,28.427,2.234
33.64,32.077,2.577
33.68,35.902,2.646
33.71,39.482,2.589
33.74,42.816,2.738
33.77,46.431,2.933
33.81,50.151,2.978
33.84,53.696,3.036
33.87,57.03,3.15
33.9,60.364,3.299
33.94,63.943,3.437
33.97,67.628,3.563
34.0,71.103,3.677
34.03,74.472,3.78
34.07,77.736,3.872
34.1,80.789,3.975
34.13,84.018,4.078
34.16,87.527,4.284
34.2,91.388,4.445
34.23,95.143,4.548
34.26,98.442,4.628
34.29,101.32,4.674
34.33,104.198,4.788
34.36,107.391,4.96
34.39,110.971,5.132
34.42,114.867,5.235
34.46,118.376,5.361
34.49,121.745,5.487
34.52,125.114,5.625
34.55,128.448,5.67
34.59,131.186,5.693
34.62,134.099,5.808
34.65,137.398,6.129
34.68,141.048,6.152
34.72,144.768,6.255
34.75,148.207,6.438
34.78,151.19,6.358
34.82,153.682,6.335
34.85,156.209,6.518
34.88,159.122,6.633
34.91,161.964,6.621
34.95,164.632,6.701
34.98,167.474,6.862
35.01,170.387,6.965
35.04,173.265,7.057
35.08,176.003,7.091
35.11,178.459,7.137
35.14,180.6,7.171
35.17,183.162,7.354
35.21,186.426,7.618
35.24,190.286,7.836
35.27,194.006,7.939
35.3,197.34,7.962
35.34,199.762,7.87
35.37,201.587,7.824
35.4,203.342,7.79
35.43,205.307,7.813
35.47,207.483,7.939
35.5,209.975,8.053
35.53,212.326,8.053
35.56,214.397,8.065
35.6,215.976,8.053
35.63,217.099,7.95
35.66,218.082,7.985
35.69,219.942,8.248
35.73,222.89,8.489
35.76,225.873,8.58
35.79,228.329,8.615
35.82,230.576,8.718
35.86,232.401,8.649
35.89,233.383,8.42
35.92,234.331,8.523
35.96,236.261,8.786
35.99,238.858,8.867
36.02,241.174,8.855
36.05,242.719,8.821
36.09,244.684,9.073
36.12,247.035,9.187
36.15,248.825,8.89
36.18,249.667,8.867
36.22,251.036,9.107
36.25,253.072,9.176
36.28,255.142,9.164
36.31,257.213,9.279
36.35,259.354,9.405
36.38,261.003,9.325
36.41,262.126,9.153
36.44,263.214,9.256
36.48,265.144,9.405
36.51,267.39,9.451
36.54,269.356,9.462
36.57,271.005,9.52
36.61,272.549,9.508
36.64,273.497,9.359
36.67,274.023,9.187
36.7,274.585,9.233
36.74,275.778,9.336
36.77,277.182,9.371
36.8,278.796,9.451
36.83,280.621,9.623
36.87,282.481,9.668
36.9,283.92,9.577
36.93,284.798,9.508
36.96,285.64,9.508
37.0,286.658,9.497
37.03,287.746,9.462
37.06,289.044,9.542
37.09,290.483,9.6
37.13,291.571,9.508
37.16,292.168,9.428
37.19,292.484,9.382
37.23,292.484,9.233
37.26,292.168,9.119
37.29,292.238,9.21
37.32,293.431,9.416
37.36,294.344,9.371
37.39,294.905,9.336
37.42,295.221,9.405
37.45,296.028,9.474
37.49,296.66,9.405
37.52,296.204,9.016
37.55,295.396,9.061
37.58,296.239,9.497
37.62,297.607,9.497
37.65,297.502,8.947
37.68,296.274,9.027
37.71,295.396,9.027
37.75,294.87,8.901
37.78,293.817,8.741
37.81,292.905,8.821
37.84,292.905,9.05
37.88,293.15,9.038
37.91,292.799,8.901
37.94,291.536,8.798
37.97,289.886,8.718
38.01,288.448,8.637
38.04,287.149,8.592
38.07,286.482,8.706
38.1,286.272,8.821
38.14,285.921,8.775
38.17,284.727,8.626
38.2,282.903,8.5
38.23,280.727,8.34
38.27,278.375,8.214
38.3,276.41,8.225
38.33,275.217,8.363
38.37,274.655,8.477
38.4,274.023,8.477
38.43,272.935,8.477
38.46,271.356,8.397
38.5,269.356,8.191
38.53,267.145,8.088
38.56,265.285,8.145
38.59,263.986,8.156
38.63,262.617,8.076
38.66,261.073,8.099
38.69,259.669,8.111
38.72,257.95,7.996
38.76,255.809,7.859
38.79,253.528,7.778
38.82,251.562,7.801
38.85,249.913,7.824
38.89,248.264,7.687
38.92,246.684,7.801
38.95,245.175,7.79
38.98,243.034,7.526
39.02,240.086,7.297
39.05,238.156,7.561
39.08,237.279,7.721
39.11,236.296,7.48
39.15,234.366,7.412
39.18,232.681,7.549
39.21,231.277,7.503
39.24,229.312,7.217
39.28,226.68,7.045
39.31,224.223,6.999
39.34,221.977,6.919
39.37,219.907,6.862
39.41,217.976,6.862
39.44,216.292,6.873
39.47,214.572,6.759
39.5,212.186,6.564
39.54,209.413,6.404
39.57,206.711,6.358
39.6,204.324,6.392
39.64,202.57,6.381
39.67,201.025,6.358
39.7,199.481,6.312
39.73,197.586,6.209
39.77,195.094,5.968
39.8,191.971,5.751
39.83,188.882,5.648
39.86,186.04,5.579
39.9,183.759,5.556
39.93,181.758,5.567
39.96,179.547,5.464
39.99,176.599,5.212
40.03,173.055,5.018
40.06,169.65,4.96
40.09,166.386,4.846
40.12,163.263,4.639
40.16,160.455,4.708
40.19,158.174,4.8
40.22,156.139,4.651
40.25,153.156,4.387
40.29,149.576,4.239
40.32,145.926,4.158
40.35,142.802,4.055
40.38,139.96,4.078
40.42,137.117,3.849
40.45,134.134,3.757
40.48,131.923,3.895
40.51,131.432,4.319
40.55,131.853,4.387
40.58,131.256,4.067
40.61,128.729,3.723
40.64,124.974,3.448
40.68,120.938,3.139
40.71,116.972,2.841
40.74,112.48,2.486
40.78,106.444,1.879
40.81,99.214,1.398
40.84,92.16,1.294
40.87,86.475,1.34
40.91,81.807,1.294
40.94,77.946,1.375
40.97,74.823,1.569
41.0,72.086,1.569
41.04,68.541,1.34
41.07,64.189,1.168
41.1,59.978,1.214
41.13,56.749,1.214
41.17,53.871,1.077
41.2,50.958,1.008
41.23,48.256,1.042
41.26,45.624,0.916
41.3,42.114,0.653
41.33,38.008,0.378
41.36,33.551,0.298
41.39,29.62,0.206
41.43,25.584,0.0
41.46,21.478,-0.103
41.49,17.723,0.011
41.52,14.319,0.023
41.56,10.599,-0.115
41.59,6.668,-0.149
41.62,2.983,0.023
41.65,0.211,0.046
41.69,-2.351,-0.137
41.72,-5.229,-0.298
41.75,-7.967,-0.389
41.78,-10.634,-0.63
41.82,-13.687,-1.1
41.85,-17.162,-1.581
41.88,-20.987,-1.982
41.92,-25.163,-2.303
41.95,-30.252,-2.715
41.98,-36.008,-2.726
42.01,-40.079,-2.612
42.05,-43.062,-2.681
42.08,-46.326,-2.818
42.11,-49.59,-2.864
42.14,-52.502,-2.795
42.18,-55.275,-2.933
42.21,-58.609,-3.162
42.24,-62.399,-3.299
42.27,-65.839,-3.345
42.31,-69.138,-3.471
42.34,-72.577,-3.735
42.37,-76.086,-3.838
42.4,-79.245,-3.769
42.44,-82.088,-3.906
42.47,-85.703,-4.25
42.5,-89.703,-4.422
42.53,-93.529,-4.433
42.57,-96.898,-4.548
42.6,-100.162,-4.731
42.63,-103.426,-4.8
42.66,-106.233,-4.743
42.7,-109.041,-4.892
42.73,-112.656,-5.212
42.76,-116.867,-5.407
42.79,-120.657,-5.384
42.83,-123.816,-5.499
42.86,-127.01,-5.739
42.89,-130.203,-5.682
42.92,-132.976,-5.693
42.96,-133.853,-5.43
42.99,-131.116,-4.342
43.02,-126.904,-4.067
43.05,-125.606,-4.88
43.09,-129.221,-5.567
43.12,-135.152,-6.037
43.15,-140.205,-6.369
43.19,-143.224,-6.415
43.22,-146.172,-6.77
43.25,-150.98,-7.446
43.28,-157.753,-7.893
43.32,-164.632,-8.007
43.35,-170.071,-7.95
43.38,-173.581,-7.801
43.41,-176.178,-7.629
43.45,-178.459,-7.584
43.48,-181.161,-7.526
43.51,-183.934,-7.48
43.54,-187.163,-7.675
43.58,-190.813,-7.904
43.61,-194.533,-7.904
43.64,-197.34,-7.881
43.67,-199.657,-7.95
43.71,-201.973,-7.973
43.74,-204.254,-7.927
43.77,-206.43,-7.927
43.8,-208.571,-7.985
43.84,-210.817,-8.053
43.87,-212.993,-8.076
43.9,-214.677,-8.019
43.93,-216.257,-7.996
43.97,-217.555,-8.053
44.0,-219.064,-8.099
44.03,-220.714,-8.237
44.06,-222.82,-8.397
44.1,-225.276,-8.534
44.13,-227.803,-8.649
44.16,-230.084,-8.695
44.19,-232.19,-8.752
44.23,-234.05,-8.786
44.26,-235.699,-8.741
44.29,-237.419,-8.809
44.33,-239.384,-8.867
44.36,-241.245,-8.855
44.39,-243.105,-8.924
44.42,-244.824,-8.947
44.46,-246.123,-8.867
44.49,-247.351,-8.89
44.52,-249.211,-9.038
44.55,-251.738,-9.279
44.59,-254.51,-9.382
44.62,-257.108,-9.405
44.65,-259.248,-9.474
44.68,-261.073,-9.439
44.72,-262.231,-9.222
44.75,-262.863,-9.084
44.78,-263.776,-9.187
44.81,-265.495,-9.313
44.85,-267.461,-9.348
44.88,-269.286,-9.428
44.91,-270.935,-9.439
44.94,-272.198,-9.394
44.98,-273.076,-9.336
45.01,-273.778,-9.245
45.04,-274.48,-9.302
45.07,-275.638,-9.405
45.11,-277.112,-9.451
45.14,-278.726,-9.531
45.17,-280.481,-9.623
45.2,-282.06,-9.703
45.24,-283.289,-9.634
45.27,-284.201,-9.542
45.3,-285.078,-9.508
45.33,-286.096,-9.508
45.37,-287.254,-9.542
45.4,-288.588,-9.611
45.43,-289.992,-9.646
45.46,-291.045,-9.611
45.5,-291.782,-9.485
45.53,-292.168,-9.382
45.56,-292.133,-9.29
45.6,-291.852,-9.119
45.63,-291.747,-9.153
45.66,-292.484,-9.405
45.69,-293.396,-9.382
45.73,-293.782,-9.256
45.76,-293.922,-9.382
45.79,-294.589,-9.416
45.82,-294.94,-9.268
45.86,-294.554,-9.13
45.89,-294.344,-9.199
45.92,-294.87,-9.359
45.95,-295.432,-9.256
45.99,-295.396,-9.13
46.02,-294.8,-9.096
46.05,-293.993,-9.038
46.08,-293.01,-8.89
46.12,-292.238,-8.867
46.15,-292.273,-9.084
46.18,-293.15,-9.279
46.21,-293.747,-9.222
46.25,-293.431,-9.119
46.28,-292.378,-8.947
46.31,-290.834,-8.695
46.34,-288.974,-8.58
46.38,-287.64,-8.58
46.41,-287.079,-8.672
46.44,-286.903,-8.786
46.47,-286.412,-8.763
46.51,-285.324,-8.66
46.54,-283.604,-8.489
46.57,-281.288,-8.259
46.6,-278.796,-8.156
46.64,-276.971,-8.282
46.67,-276.41,-8.466
46.7,-276.164,-8.534
46.74,-275.357,-8.546
46.77,-274.199,-8.557
46.8,-272.62,-8.385
46.83,-270.198,-8.099
46.87,-267.636,-8.065
46.9,-265.916,-8.133
46.93,-264.653,-8.088
46.96,-263.214,-8.065
47.0,-261.775,-8.076
47.03,-260.231,-8.065
47.06,-258.09,-7.927
47.09,-255.598,-7.755
47.13,-253.387,-7.79
47.16,-251.843,-7.904
47.19,-250.896,-7.927
47.22,-249.738,-7.859
47.26,-248.439,-7.847
47.29,-247.211,-7.87
47.32,-245.456,-7.687
47.35,-243.069,-7.435
47.39,-240.683,-7.423
47.42,-238.893,-7.435
47.45,-236.963,-7.32
47.48,-234.752,-7.194
47.52,-232.26,-7.114
47.55,-230.084,-7.102
47.58,-227.592,-6.988
47.61,-225.311,-6.954
47.65,-223.276,-7.022
47.68,-220.995,-6.759
47.71,-218.362,-6.759
47.74,-216.081,-6.77
47.78,-214.677,-6.885
47.81,-213.835,-6.954
47.84,-212.291,-6.724
47.87,-209.589,-6.495
47.91,-206.956,-6.495
47.94,-205.096,-6.495
47.97,-203.552,-6.427
48.01,-201.903,-6.369
48.04,-200.043,-6.243
48.07,-197.656,-6.094
48.1,-194.884,-5.888
48.14,-191.866,-5.716
48.17,-188.812,-5.625
48.2,-185.934,-5.464
48.23,-183.337,-5.441
48.27,-181.267,-5.522
48.3,-179.161,-5.373
48.33,-176.389,-5.132
48.36,-172.774,-4.96
48.4,-168.843,-4.708
48.43,-165.614,-4.811
48.46,-162.912,-4.788
48.49,-160.736,-4.708
48.53,-158.841,-4.846
48.56,-156.7,-4.685
48.59,-153.577,-4.376
48.62,-150.032,-4.273
48.66,-146.417,-4.113
48.69,-142.802,-3.918
48.72,-139.223,-3.769
48.75,-135.713,-3.677
48.79,-132.765,-3.631
48.82,-129.958,-3.62
48.85,-127.396,-3.574
48.88,-124.448,-3.379
48.92,-121.114,-3.219
48.95,-117.534,-3.082
48.98,-114.235,-3.047
49.01,-111.427,-2.967
49.05,-108.76,-2.852
49.08,-105.531,-2.669
49.11,-101.741,-2.429
49.15,-97.319,-2.188
49.18,-92.511,-1.936
49.21,-87.808,-1.741
49.24,-83.562,-1.684
49.28,-79.877,-1.65
49.31,-76.613,-1.558
49.34,-73.174,-1.478
49.37,-69.734,-1.478
49.41,-66.365,-1.34
49.44,-62.856,-1.146
49.47,-59.276,-1.1
49.5,-56.082,-1.042
49.54,-53.029,-0.951
49.57,-49.835,-0.79
49.6,-46.361,-0.664
49.63,-42.957,-0.596
49.67,-39.412,-0.412
49.7,-35.481,-0.195
49.73,-31.621,-0.115
49.76,-27.936,-0.034
49.8,-24.426,0.08
49.83,-20.811,0.218
49.86,-16.951,0.321
49.89,-13.161,0.389
49.93,-9.406,0.424
49.96,-5.51,0.47
49.99,-1.685,0.55
50.02,2.176,0.504
50.06,5.334,0.435
50.09,7.791,0.538
50.12,9.862,0.745
50.15,12.318,1.146
50.19,15.512,1.707
50.22,19.408,2.142
50.25,24.251,2.474
50.28,29.024,2.589
50.32,33.481,2.715
50.35,37.622,2.818
50.38,41.412,2.83
50.42,44.29,2.692
50.45,46.887,2.704
50.48,49.8,2.875
50.51,53.169,3.001
50.55,56.573,3.047
50.58,59.978,3.208
50.61,63.557,3.402
50.64,67.172,3.54
50.68,70.647,3.62
50.71,74.086,3.78
50.74,77.315,3.906
50.77,80.649,3.964
50.81,83.878,4.078
50.84,87.352,4.296
50.87,91.037,4.445
50.9,94.757,4.548
50.94,98.161,4.617
50.97,101.144,4.674
51.0,104.057,4.788
51.03,107.321,4.949
51.07,110.936,5.121
51.1,115.007,5.315
51.13,118.692,5.396
51.16,122.237,5.51
51.2,125.185,5.51
51.23,128.168,5.636
51.26,131.502,5.9
51.29,134.766,5.785
51.33,137.468,5.842
51.36,140.135,6.014
51.39,143.61,6.22
51.42,147.435,6.392
51.46,150.734,6.335
51.49,153.296,6.289
51.52,155.788,6.553
51.56,158.946,6.69
51.59,162.175,6.701
51.62,165.123,6.759
51.65,168.036,6.919
51.69,170.773,6.965
51.72,173.405,6.988
51.75,175.792,7.034
51.78,178.143,7.08
51.82,180.6,7.16
51.85,183.372,7.332
51.88,186.636,7.538
51.91,190.251,7.698
51.95,193.515,7.79
51.98,196.568,7.847
52.01,199.165,7.824
52.04,201.271,7.813
52.08,203.412,7.824
52.11,205.588,7.881
52.14,207.939,7.996
52.17,210.396,8.019
52.21,212.396,7.962
52.24,214.081,7.996
52.27,215.555,8.007
52.3,216.818,7.939
52.34,218.222,8.019
52.37,220.328,8.248
52.4,223.03,8.42
52.43,225.592,8.489
52.47,228.049,8.592
52.5,230.505,8.752
52.53,232.506,8.66
52.56,233.699,8.5
52.6,234.822,8.592
52.63,236.717,8.763
52.66,239.069,8.821
52.7,241.315,8.878
52.73,243.42,8.993
52.76,245.456,9.004
52.79,246.86,8.901
52.83,247.948,8.821
52.86,249.597,9.038
52.89,251.949,9.21
52.92,254.23,9.13
52.96,255.704,9.096
52.99,257.248,9.256
53.02,259.354,9.359
53.05,260.933,9.187
53.09,261.845,9.061
53.12,262.898,9.21
53.15,264.723,9.382
53.18,267.004,9.405
53.22,268.935,9.451
53.25,270.865,9.531
53.28,272.585,9.508
53.31,273.427,9.336
53.35,273.813,9.199
53.38,274.409,9.279
53.41,275.743,9.428
53.44,277.393,9.462
53.48,279.112,9.52
53.51,280.937,9.657
53.54,282.657,9.691
53.57,283.92,9.52
53.61,284.657,9.439
53.64,285.464,9.508
53.67,286.517,9.462
53.7,287.605,9.428
53.74,288.869,9.531
53.77,290.167,9.588
53.8,291.36,9.508
53.83,291.957,9.439
53.87,292.378,9.394
53.9,292.484,9.21
53.93,292.413,9.119
53.97,292.624,9.302
54.0,293.852,9.474
54.03,294.659,9.359
54.06,295.081,9.325
54.1,295.151,9.359
54.13,295.151,9.176
54.16,295.396,9.29
54.19,295.747,9.268
54.23,296.133,9.199
54.26,296.449,9.336
54.29,297.011,9.382
54.32,297.186,9.21
54.36,296.695,9.084
54.39,295.993,9.004
54.42,295.045,8.855
54.45,293.782,8.741
54.49,293.15,8.901
54.52,293.361,9.107
54.55,293.712,9.061
54.58,293.08,8.924
54.62,291.676,8.832
54.65,290.062,8.729
54.68,288.483,8.58
54.71,286.974,8.546
54.75,286.201,8.706
54.78,286.026,8.832
54.81,285.675,8.763
54.84,284.447,8.626
54.88,282.411,8.477
54.91,280.095,8.351
54.94,277.989,8.259
54.97,276.234,8.271
55.01,275.146,8.466
55.04,274.69,8.557
55.07,274.023,8.523
55.11,272.865,8.534
55.14,271.251,8.466
55.17,269.356,8.237
55.2,267.215,8.145
55.24,265.565,8.225
55.27,264.302,8.214
55.3,263.004,8.133
55.33,261.705,8.179
55.37,260.336,8.145
55.4,258.406,7.95
55.43,255.844,7.755
55.46,253.107,7.755
55.5,251.212,7.824
55.53,249.773,7.778
55.56,248.439,7.755
55.59,246.79,7.778
55.63,245.035,7.71
55.66,243.034,7.629
55.69,240.929,7.549
55.72,238.998,7.526
55.76,237.209,7.515
55.79,235.524,7.423
55.82,233.629,7.366
55.85,231.628,7.309
55.89,229.663,7.286
55.92,227.487,7.125
55.95,224.89,6.942
55.98,222.328,6.976
56.02,220.609,7.08
56.05,219.345,7.022
56.08,218.082,7.057
56.11,216.187,6.908
56.15,213.73,6.69
56.18,211.098,6.701
56.21,208.571,6.461
56.24,206.781,6.598
56.28,205.763,6.724
56.31,204.43,6.472
56.34,202.324,6.369
56.38,200.253,6.415
56.41,198.323,6.255
56.44,195.761,5.968
56.47,193.199,5.957
56.51,189.549,5.544
56.54,185.162,5.178
56.57,182.355,5.67
56.6,181.969,6.003
56.64,180.705,5.487
56.67,176.634,4.846
56.7,171.475,4.846
56.73,168.106,5.086
56.77,165.72,4.937
56.8,162.807,4.536
56.83,159.789,4.777
56.86,157.507,4.834
56.9,155.823,4.777
56.93,153.647,4.685
56.96,150.839,4.491
56.99,147.61,4.296
57.03,144.276,4.17
57.06,141.223,4.078
57.09,138.661,4.067
57.12,136.415,4.032
57.16,133.994,3.895
57.19,130.835,3.62
57.22,126.974,3.356
57.25,122.658,3.219
57.29,118.727,3.07
57.32,114.691,2.875
57.35,110.936,2.772
57.38,107.076,2.681
57.42,103.145,2.497
57.45,99.214,2.36
57.48,95.073,2.245
57.52,90.967,2.051
57.55,86.475,1.856
57.58,81.947,1.695
57.61,77.771,1.695
57.65,74.261,1.684
57.68,71.103,1.65
57.71,68.155,1.592
57.74,65.067,1.535
57.78,61.838,1.432
57.81,58.609,1.294
57.84,55.205,1.203
57.87,51.941,1.134
57.91,48.817,0.997
57.94,45.834,0.916
57.97,42.816,0.825
58.0,39.658,0.664
58.04,36.218,0.55
58.07,32.849,0.458
58.1,29.55,0.378
58.13,26.321,0.229
58.17,22.847,0.137
58.2,19.197,0.046
58.23,15.372,-0.103
58.26,10.95,-0.218
58.3,6.387,-0.344
58.33,1.72,-0.321
58.36,-2.457,-0.206
58.39,-5.791,-0.252
58.43,-8.528,-0.367
58.46,-10.739,-0.493
58.49,-12.95,-0.882
58.52,-15.898,-1.501
58.56,-19.724,-2.028
58.59,-24.04,-2.28
58.62,-28.708,-2.394
58.65,-33.376,-2.474
58.69,-37.447,-2.704
58.72,-41.412,-2.761
58.75,-44.922,-2.761
58.79,-48.396,-2.887
58.82,-51.871,-3.013
58.85,-55.17,-3.024
58.88,-58.398,-3.104
58.92,-61.557,-3.265
58.95,-64.856,-3.334
58.98,-67.769,-3.379
59.01,-70.717,-3.505
59.05,-73.981,-3.666
59.08,-77.209,-3.769
59.11,-80.087,-3.792
59.14,-82.544,-3.792
59.18,-85.352,-4.09
59.21,-89.282,-4.525
59.24,-93.423,-4.513
59.27,-97.108,-4.582
59.31,-100.407,-4.823
59.34,-103.812,-4.926
59.37,-107.146,-4.949
59.4,-110.55,-5.155
59.44,-114.095,-5.315
59.47,-117.92,-5.453
59.5,-121.5,-5.556
59.53,-124.974,-5.67
59.57,-127.887,-5.659
59.6,-130.554,-5.659
59.63,-133.221,-5.854
59.66,-135.783,-5.762
59.7,-138.451,-5.9
59.73,-141.364,-6.106
59.76,-144.627,-6.197
59.79,-147.681,-6.301
59.83,-150.629,-6.427
59.86,-153.928,-6.575
59.89,-157.472,-6.782
59.93,-161.298,-6.942
59.96,-165.334,-7.114
59.99,-169.405,-7.274
60.02,-173.335,-7.354
60.06,-176.704,-7.332
60.09,-179.301,-7.286
60.12,-181.442,-7.217
60.15,-183.583,-7.251
60.19,-186.18,-7.377
60.22,-189.479,-7.572
60.25,-192.778,-7.664
60.28,-195.515,-7.606
60.32,-197.551,-7.595
60.35,-199.481,-7.641
60.38,-201.447,-7.675
60.41,-203.482,-7.71
60.45,-205.658,-7.755
60.48,-207.974,-7.881
60.51,-210.185,-7.985
60.54,-212.045,-7.95
60.58,-213.484,-7.927
60.61,-214.818,-7.95
60.64,-216.116,-7.95
60.67,-217.59,-8.007
60.71,-219.521,-8.191
60.74,-222.083,-8.385
60.77,-224.82,-8.546
60.8,-227.347,-8.603
60.84,-229.453,-8.637
60.87,-231.418,-8.672
60.9,-233.418,-8.672
60.93,-235.208,-8.718
60.97,-237.349,-8.729
61.0,-239.069,-8.741
61.03,-241.034,-8.832
61.06,-242.824,-8.867
61.1,-244.543,-8.832
61.13,-246.404,-8.924
61.16,-248.193,-8.958
61.2,-249.667,-8.89
61.23,-250.79,-8.935
61.26,-252.44,-9.107
61.29,-254.581,-9.176
61.33,-256.651,-9.222
61.36,-258.827,-9.348
61.39,-260.687,-9.29
61.42,-261.81,-9.13
61.46,-262.828,-9.164
61.49,-264.618,-9.359
61.52,-266.759,-9.428
61.55,-268.794,-9.394
61.59,-270.549,-9.439
61.62,-271.883,-9.428
61.65,-272.62,-9.245
61.68,-272.935,-9.153
61.72,-273.708,-9.268
61.75,-275.146,-9.336
61.78,-276.796,-9.336
61.81,-278.375,-9.474
61.85,-279.919,-9.542
61.88,-280.972,-9.394
61.91,-281.639,-9.394
61.94,-282.587,-9.474
61.98,-283.64,-9.359
62.01,-284.552,-9.359
62.04,-286.026,-9.611
62.07,-287.921,-9.668
62.11,-289.606,-9.634
62.14,-290.799,-9.6
62.17,-291.711,-9.531
62.2,-292.238,-9.416
62.24,-292.448,-9.268
62.27,-292.413,-9.142
62.3,-292.87,-9.302
62.34,-293.817,-9.382
62.37,-294.695,-9.222
62.4,-294.765,-9.21
62.43,-295.361,-9.359
62.47,-296.098,-9.428
62.5,-295.853,-9.027
62.53,-295.256,-8.993
62.56,-295.888,-9.394
62.6,-297.186,-9.405
62.63,-297.572,-9.096
62.66,-297.221,-9.164
62.69,-296.87,-9.153
62.73,-296.028,-8.867
62.76,-294.379,-8.615
62.79,-293.221,-8.718
62.82,-293.256,-8.981
62.86,-294.063,-9.084
62.89,-294.203,-9.038
62.92,-293.431,-8.901
62.95,-291.817,-8.729
62.99,-290.027,-8.615
63.02,-288.483,-8.511
63.05,-287.254,-8.5
63.08,-286.693,-8.649
63.12,-286.447,-8.786
63.15,-285.991,-8.695
63.18,-284.763,-8.534
63.21,-282.657,-8.385
63.25,-280.305,-8.225
63.28,-277.954,-8.133
63.31,-276.375,-8.259
63.34,-275.813,-8.408
63.38,-275.427,-8.5
63.41,-274.515,-8.489
63.44,-273.251,-8.489
63.48,-271.497,-8.317
63.51,-269.145,-8.099
63.54,-266.829,-8.007
63.57,-264.864,-8.019
63.61,-263.319,-8.042
63.64,-262.021,-8.042
63.67,-260.582,-8.076
63.7,-259.143,-8.111
63.74,-257.423,-7.996
63.77,-255.002,-7.687
63.8,-252.966,-7.801
63.83,-251.562,-7.962
63.87,-250.264,-7.71
63.9,-247.913,-7.561
63.93,-245.526,-7.595
63.96,-243.701,-7.675
64.0,-242.122,-7.572
64.03,-240.332,-7.412
64.06,-238.332,-7.458
64.09,-236.823,-7.526
64.13,-235.278,-7.48
64.16,-233.699,-7.366
64.19,-232.05,-7.366
64.22,-230.119,-7.297
64.26,-228.049,-7.057
64.29,-225.417,-6.942
64.32,-222.995,-6.942
64.35,-221.065,-6.942
64.39,-219.45,-6.908
64.42,-217.625,-6.816
64.45,-216.467,-7.022
64.48,-214.677,-6.805
64.52,-211.168,-6.175
64.55,-207.237,-6.186
64.58,-204.851,-6.461
64.61,-203.342,-6.312
64.65,-201.973,-6.255
64.68,-200.429,-6.404
64.71,-198.709,-6.323
64.75,-196.533,-6.094
64.78,-193.726,-5.911
64.81,-190.778,-5.819
64.84,-188.075,-5.705
64.88,-185.548,-5.556
64.91,-183.372,-5.59
64.94,-181.372,-5.625
64.97,-179.266,-5.418
65.01,-175.967,-5.144
65.04,-172.458,-5.029
65.07,-168.738,-4.869
65.1,-165.263,-4.651
65.14,-162.456,-4.788
65.17,-160.596,-4.869
65.2,-158.946,-4.846
65.23,-156.174,-4.513
65.27,-152.84,-4.342
65.3,-149.225,-4.273
65.33,-146.031,-4.17
65.36,-142.978,-3.987
65.4,-139.749,-3.849
65.43,-136.626,-3.815
65.46,-133.783,-3.757
65.49,-130.975,-3.643
65.53,-128.203,-3.586
65.56,-125.465,-3.54
65.59,-122.482,-3.345
65.62,-119.008,-3.15
65.66,-115.604,-3.07
65.69,-112.515,-3.001
65.72,-109.532,-2.875
65.75,-106.023,-2.6
65.79,-101.706,-2.348
65.82,-96.828,-2.108
65.85,-91.914,-1.902
65.89,-87.282,-1.707
65.92,-83.0,-1.684
65.95,-79.42,-1.695
65.98,-76.086,-1.615
66.02,-72.717,-1.535
66.05,-69.489,-1.524
66.08,-66.19,-1.398
66.11,-62.715,-1.226
66.15,-59.241,-1.191
66.18,-56.117,-1.168
66.21,-53.064,-1.008
66.24,-49.695,-0.813
66.28,-46.115,-0.71
66.31,-42.711,-0.619
66.34,-39.236,-0.481
66.37,-35.587,-0.286
66.41,-31.691,-0.115
66.44,-27.69,0.011
66.47,-23.795,0.126
66.5,-19.934,0.195
66.54,-16.319,0.286
66.57,-12.494,0.367
66.6,-8.598,0.424
66.63,-4.843,0.493
66.67,-0.877,0.47
66.7,2.773,0.412
66.73,5.931,0.481
66.76,8.704,0.63
66.8,11.266,0.836
66.83,13.863,1.237
66.86,16.67,1.695
66.89,20.039,2.119
66.93,24.602,2.348
66.96,29.164,2.6
66.99,33.516,2.681
67.02,36.955,2.589
67.06,39.798,2.6
67.09,42.606,2.681
67.12,45.799,2.795
67.16,49.519,2.967
67.19,53.275,3.082
67.22,56.749,3.127
67.25,60.083,3.265
67.29,63.557,3.46
67.32,67.278,3.597
67.35,70.857,3.677
67.38,74.297,3.815
67.42,77.666,3.906
67.45,80.894,3.998
67.48,84.088,4.135
67.51,87.633,4.342
67.55,91.388,4.468
67.58,95.178,4.582
67.61,98.512,4.639
67.64,101.355,4.674
67.68,104.198,4.777
67.71,107.426,4.972
67.74,111.041,5.144
67.77,114.796,5.304
67.81,118.446,5.407
67.84,121.956,5.522
67.87,125.15,5.602
67.9,128.203,5.682
67.94,130.975,5.716
67.97,134.134,5.945
68.0,137.784,6.175
68.03,141.574,6.163
68.07,145.154,6.335
68.1,148.418,6.427
68.13,151.05,6.335
68.16,153.226,6.301
68.2,155.682,6.495
68.23,158.665,6.644
68.26,161.719,6.69
68.3,164.632,6.782
68.33,167.615,6.965
68.36,170.528,7.068
68.39,173.3,7.102
68.43,175.757,7.102
68.46,178.073,7.16
68.49,180.46,7.24
68.52,183.267,7.423
68.56,186.531,7.664
68.59,190.286,7.836
68.62,193.796,7.927
68.65,196.954,7.95
68.69,199.481,7.893
68.72,201.482,7.859
68.75,203.552,7.836
68.78,205.623,7.927
68.82,208.044,8.03
68.85,210.571,8.042
68.88,212.642,8.053
68.91,214.502,8.099
68.95,215.906,8.007
68.98,216.853,7.939
69.01,218.047,8.088
69.04,220.222,8.317
69.08,223.065,8.511
69.11,225.943,8.626
69.14,228.435,8.706
69.17,230.646,8.798
69.21,232.295,8.66
69.24,233.208,8.477
69.27,234.436,8.66
69.3,236.577,8.844
69.34,238.998,8.89
69.37,240.894,8.867
69.4,243.069,9.016
69.43,245.386,9.21
69.47,247.632,9.084
69.5,248.65,8.924
69.53,249.281,8.878
69.57,251.106,9.21
69.6,253.949,9.405
69.63,256.476,9.313
69.66,258.125,9.245
69.7,259.389,9.325
69.73,260.442,9.233
69.76,261.354,9.084
69.79,262.688,9.268
69.83,264.934,9.462
69.86,267.215,9.462
69.89,269.04,9.497
69.92,270.724,9.577
69.96,272.339,9.588
69.99,273.357,9.405
70.02,273.848,9.256
70.05,274.62,9.348
70.09,275.954,9.451
70.12,277.463,9.439
70.15,279.007,9.554
70.18,280.832,9.703
70.22,282.587,9.703
70.25,283.78,9.588
70.28,284.657,9.531
70.31,285.464,9.554
70.35,286.482,9.52
70.38,287.57,9.52
70.41,288.799,9.646
70.44,290.273,9.623
70.48,291.29,9.531
70.51,291.852,9.497
70.54,292.203,9.416
70.57,292.133,9.245
70.61,291.817,9.153
70.64,292.027,9.302
70.67,293.185,9.531
70.71,293.993,9.405
70.74,294.484,9.371
70.77,294.624,9.382
70.8,295.467,9.508
70.84,295.888,9.348
70.87,295.432,9.05
70.9,295.326,9.29
70.93,296.8,9.623
70.97,297.713,9.359
71.0,297.432,9.05
71.03,296.344,9.13
71.06,295.572,8.97
71.1,294.624,8.89
71.13,293.607,8.763
71.16,293.045,8.924
71.19,293.256,9.176
71.23,293.712,9.176
71.26,293.361,9.016
71.29,292.062,8.867
71.32,290.623,8.763
71.36,288.974,8.592
71.39,287.289,8.534
71.42,286.377,8.706
71.45,286.237,8.855
71.49,285.815,8.763
71.52,284.482,8.626
71.55,282.481,8.489
71.58,280.2,8.34
71.62,277.954,8.237
71.65,276.129,8.294
71.68,275.146,8.511
71.71,274.796,8.592
71.75,274.199,8.58
71.78,273.146,8.58
71.81,271.707,8.489
71.84,269.847,8.294
71.88,267.776,8.191
71.91,266.022,8.191
71.94,264.478,8.133
71.98,262.828,8.053
72.01,261.143,8.099
72.04,259.564,8.111
72.07,257.669,7.95
72.11,255.247,7.801
72.14,252.861,7.824
72.17,251.282,7.95
72.2,249.843,7.847
72.24,248.264,7.801
72.27,247.141,7.996
72.3,245.772,7.836
72.33,243.42,7.48
72.37,240.543,7.446
72.4,238.437,7.572
72.43,236.682,7.458
72.46,235.033,7.423
72.5,233.453,7.526
72.53,232.014,7.48
72.56,230.54,7.435
72.59,228.961,7.412
72.63,226.961,7.228
72.66,224.82,7.08
72.69,222.784,7.091
72.72,221.17,7.068
72.76,219.661,6.954
72.79,217.801,6.885
72.82,215.59,6.77
72.85,212.888,6.507
72.89,209.764,6.301
72.92,206.781,6.278
72.95,204.289,6.266
72.98,202.324,6.255
73.02,200.639,6.289
73.05,198.955,6.266
73.08,196.884,6.129
73.12,194.217,5.934
73.15,191.339,5.831
73.18,188.672,5.762
73.21,185.97,5.625
73.25,183.478,5.544
73.28,181.337,5.613
73.31,179.301,5.556
73.34,176.389,5.235
73.38,172.844,5.04
73.41,169.299,5.018
73.44,166.141,4.846
73.47,163.087,4.674
73.51,160.42,4.788
73.54,158.209,4.8
73.57,155.788,4.605
73.6,152.489,4.33
73.64,148.804,4.227
73.67,145.224,4.101
73.7,142.241,4.032
73.73,139.644,4.09
73.77,137.433,3.975
73.8,135.046,3.975
73.83,132.449,3.815
73.86,129.115,3.551
73.9,125.255,3.379
73.93,121.465,3.242
73.96,117.85,3.093
73.99,114.656,3.013
74.03,111.497,2.944
74.06,108.199,2.772
74.09,104.373,2.555
74.12,100.197,2.383
74.16,95.74,2.165
74.19,91.142,1.925
74.22,86.475,1.787
74.26,82.193,1.707
74.29,78.578,1.718
74.32,75.49,1.73
74.35,72.647,1.661
74.39,69.629,1.592
74.42,66.47,1.512
74.45,63.312,1.398
74.48,60.188,1.306
74.52,56.96,1.214
74.55,54.012,1.1
74.58,50.853,0.974
74.61,47.729,0.859
74.65,44.115,0.653
74.68,40.219,0.447
74.71,36.183,0.321
74.74,32.288,0.229
74.78,28.708,0.149
74.81,25.128,0.069
74.84,21.443,0.011
74.87,17.653,-0.08
74.91,13.687,-0.206
74.94,9.441,-0.263
74.97,5.089,-0.206
75.0,1.193,-0.206
75.04,-2.422,-0.241
75.07,-5.405,-0.206
75.1,-7.896,-0.309
75.13,-10.318,-0.63
75.17,-13.091,-0.974
75.2,-15.968,-1.409
75.23,-19.583,-1.936
75.26,-23.795,-2.314
75.3,-28.322,-2.394
75.33,-32.674,-2.348
75.36,-35.973,-2.497
75.39,-39.166,-2.555
75.43,-42.184,-2.555
75.46,-45.413,-2.761
75.49,-49.098,-2.978
75.53,-52.818,-3.001
75.56,-56.223,-3.07
75.59,-59.592,-3.299
75.62,-63.136,-3.46
75.66,-66.716,-3.505
75.69,-70.085,-3.666
75.72,-73.7,-3.861
75.75,-77.525,-4.009
75.79,-81.21,-4.09
75.82,-84.65,-4.181
75.85,-87.914,-4.353
75.88,-91.388,-4.468
75.92,-94.862,-4.571
75.95,-98.337,-4.72
75.98,-101.811,-4.857
76.01,-105.145,-4.903
76.05,-108.128,-4.949
76.08,-111.287,-5.144
76.11,-114.691,-5.327
76.14,-118.517,-5.453
76.18,-122.202,-5.602
76.21,-125.781,-5.716
76.24,-128.764,-5.693
76.27,-131.642,-5.831
76.31,-134.274,-5.888
76.34,-136.871,-5.774
76.37,-139.398,-5.923
76.4,-142.451,-6.152
76.44,-146.031,-6.381
76.47,-149.506,-6.449
76.5,-152.032,-6.289
76.53,-154.524,-6.53
76.57,-158.35,-7.011
76.6,-162.947,-7.08
76.63,-166.562,-7.045
76.67,-169.545,-7.194
76.7,-172.844,-7.366
76.73,-176.003,-7.297
76.76,-178.494,-7.228
76.8,-180.495,-7.228
76.83,-182.425,-7.228
76.86,-184.566,-7.274
76.89,-187.479,-7.492
76.93,-190.778,-7.698
76.96,-194.112,-7.801
76.99,-196.954,-7.836
77.02,-199.481,-7.847
77.06,-201.447,-7.847
77.09,-203.447,-7.87
77.12,-205.412,-7.847
77.15,-207.588,-7.973
77.19,-210.01,-8.099
77.22,-212.396,-8.088
77.25,-214.186,-8.042
77.28,-215.485,-8.03
77.32,-216.608,-8.007
77.35,-217.906,-8.053
77.38,-219.801,-8.248
77.41,-222.504,-8.477
77.45,-225.276,-8.592
77.48,-227.768,-8.672
77.51,-229.768,-8.649
77.54,-231.277,-8.615
77.58,-232.751,-8.695
77.61,-234.892,-8.786
77.64,-237.033,-8.844
77.67,-239.174,-8.924
77.71,-241.174,-8.947
77.74,-243.175,-9.027
77.77,-245.07,-9.073
77.8,-246.614,-8.958
77.84,-247.702,-8.878
77.87,-248.965,-9.016
77.9,-251.001,-9.164
77.94,-253.282,-9.222
77.97,-255.423,-9.279
78.0,-257.494,-9.348
78.03,-259.248,-9.313
78.07,-260.512,-9.256
78.1,-261.53,-9.222
78.13,-262.898,-9.256
78.16,-264.513,-9.313
78.2,-266.408,-9.382
78.23,-268.057,-9.439
78.26,-269.672,-9.52
78.29,-271.251,-9.474
78.33,-272.304,-9.348
78.36,-273.111,-9.325
78.39,-274.023,-9.371
78.42,-275.146,-9.405
78.46,-276.48,-9.474
78.49,-278.13,-9.542
78.52,-279.919,-9.657
78.55,-281.639,-9.714
78.59,-283.008,-9.623
78.62,-283.955,-9.554
78.65,-284.763,-9.577
78.68,-285.815,-9.508
78.72,-287.009,-9.52
78.75,-288.307,-9.6
78.78,-289.676,-9.588
78.81,-290.623,-9.508
78.85,-291.115,-9.451
78.88,-291.501,-9.371
78.91,-291.641,-9.268
78.94,-291.571,-9.187
78.98,-292.097,-9.371
79.01,-293.185,-9.416
79.04,-293.852,-9.336
79.08,-294.168,-9.394
79.11,-294.94,-9.474
79.14,-295.818,-9.508
79.17,-295.642,-9.164
79.21,-295.01,-9.107
79.24,-295.712,-9.451
79.27,-296.941,-9.474
79.3,-297.186,-9.176
79.34,-296.66,-9.187
79.37,-295.993,-9.142
79.4,-295.116,-8.867
79.43,-293.677,-8.649
79.47,-292.554,-8.775
79.5,-292.519,-9.027
79.53,-293.326,-9.142
79.56,-293.712,-9.096
79.6,-293.15,-9.004
79.63,-291.817,-8.786
79.66,-289.851,-8.592
79.69,-287.991,-8.546
79.73,-286.833,-8.569
79.76,-286.447,-8.718
79.79,-286.412,-8.867
79.82,-285.921,-8.786
79.86,-284.587,-8.615
79.89,-282.376,-8.489
79.92,-280.165,-8.305
79.95,-277.989,-8.225
79.99,-276.445,-8.317
80.02,-275.848,-8.477
80.05,-275.462,-8.546
80.08,-274.69,-8.546
80.12,-273.532,-8.523
80.15,-271.672,-8.317
80.18,-269.145,-8.111
80.21,-266.934,-8.076
80.25,-265.215,-8.099
80.28,-263.811,-8.111
80.31,-262.442,-8.065
80.35,-260.933,-8.076
80.38,-259.283,-8.088
80.41,-257.388,-7.962
80.44,-254.791,-7.71
80.48,-252.826,-7.847
80.51,-251.562,-7.996
80.54,-250.439,-7.778
80.57,-248.369,-7.687
80.61,-246.158,-7.721
80.64,-244.403,-7.721
80.67,-242.683,-7.595
80.7,-240.718,-7.48
80.74,-238.683,-7.503
80.77,-237.138,-7.584
80.8,-235.664,-7.515
80.83,-234.015,-7.412
80.87,-232.26,-7.366
80.9,-230.225,-7.286
80.93,-228.084,-7.068
80.96,-225.346,-6.988
81.0,-223.206,-7.011
81.03,-221.31,-6.908
81.06,-219.31,-6.85
81.09,-217.204,-6.816
81.13,-215.274,-6.793
81.16,-213.098,-6.667
81.19,-210.922,-6.541
81.22,-208.676,-6.553
81.26,-205.974,-6.163
81.29,-203.658,-6.312
81.32,-202.921,-6.701
81.35,-202.394,-6.495
81.39,-200.604,-6.22
81.42,-197.937,-6.163
81.45,-194.743,-5.911
81.49,-191.479,-5.625
81.52,-188.145,-5.533
81.55,-185.092,-5.407
81.58,-182.355,-5.373
81.62,-180.319,-5.499
81.65,-178.249,-5.35
81.68,-175.23,-5.098
81.71,-171.791,-4.995
81.75,-168.562,-4.937
81.78,-165.544,-4.834
81.81,-162.421,-4.674
81.84,-159.929,-4.743
81.88,-158.104,-4.903
81.91,-155.542,-4.456
81.94,-152.068,-4.273
81.97,-148.663,-4.353
82.01,-145.996,-4.296
82.04,-143.434,-4.101
82.07,-140.521,-3.987
82.1,-137.643,-3.952
82.14,-135.152,-3.918
82.17,-132.765,-3.78
82.2,-129.782,-3.551
82.23,-126.132,-3.299
82.27,-121.991,-3.059
82.3,-117.78,-2.875
82.33,-113.954,-2.818
82.36,-110.76,-2.795
82.4,-107.848,-2.726
82.43,-104.514,-2.509
82.46,-100.478,-2.314
82.49,-95.985,-2.108
82.53,-91.318,-1.936
82.56,-86.861,-1.764
82.59,-82.79,-1.718
82.62,-79.28,-1.707
82.66,-76.157,-1.627
82.69,-72.787,-1.524
82.72,-69.348,-1.489
82.76,-65.944,-1.34
82.79,-62.329,-1.18
82.82,-58.679,-1.111
82.85,-55.591,-1.054
82.89,-52.643,-0.974
82.92,-49.625,-0.836
82.95,-46.255,-0.676
82.98,-42.781,-0.55
83.02,-39.096,-0.424
83.05,-35.797,-0.344
83.08,-32.674,-0.286
83.11,-29.41,-0.126
83.15,-25.69,0.08
83.18,-21.513,0.252
83.21,-17.197,0.389
83.24,-12.915,0.493
83.28,-8.809,0.515
83.31,-4.843,0.504
83.34,-1.088,0.515
83.37,2.457,0.493
83.41,5.65,0.538
83.44,8.493,0.676
83.47,11.055,0.894
83.5,13.652,1.26
83.54,16.67,1.741
83.57,20.25,2.154
83.6,24.847,2.303
83.63,28.989,2.463
83.67,32.919,2.623
83.7,36.674,2.658
83.73,40.149,2.726
83.76,43.729,2.852
83.8,47.168,2.875
83.83,50.221,2.83
83.86,53.169,2.956
83.9,56.398,3.15
83.93,59.943,3.253
83.96,63.557,3.391
83.99,67.242,3.574
84.03,70.752,3.643
84.06,74.086,3.723
84.09,77.245,3.861
84.12,80.473,3.975
84.16,83.772,4.09
84.19,87.317,4.33
84.22,91.142,4.468
84.25,94.933,4.594
84.29,98.267,4.662
84.32,101.109,4.697
84.35,103.847,4.766
84.38,107.04,4.972
84.42,110.585,5.121
84.45,114.481,5.304
84.48,118.166,5.407
84.51,121.71,5.556
84.55,125.185,5.693
84.58,128.448,5.739
84.61,131.186,5.693
84.64,134.134,5.923
84.68,137.714,6.175
84.71,141.469,6.163
84.74,145.049,6.346
84.77,148.347,6.438
84.81,151.085,6.346
84.84,153.296,6.301
84.87,155.753,6.507
84.9,158.736,6.644
84.94,161.789,6.679
84.97,164.772,6.77
85.0,167.72,6.931
85.04,170.528,7.034
85.07,173.37,7.068
85.1,175.932,7.125
85.13,178.354,7.171
85.17,180.775,7.217
85.2,183.513,7.412
85.23,186.777,7.652
85.26,190.462,7.801
85.3,193.866,7.859
85.33,196.849,7.893
85.36,199.2,7.87
85.39,201.201,7.836
85.43,203.061,7.836
85.46,205.377,7.927
85.49,207.799,8.007
85.52,210.15,8.042
85.56,212.221,8.053
85.59,214.081,8.088
85.62,215.414,8.03
85.65,216.573,7.985
85.69,217.941,8.099
85.72,219.977,8.328
85.75,222.714,8.534
85.78,225.452,8.637
85.82,227.873,8.672
85.85,230.119,8.786
85.88,231.699,8.672
85.91,232.646,8.511
85.95,234.05,8.706
85.98,236.331,8.867
86.01,238.788,8.97
86.04,240.823,8.924
86.08,242.999,9.038
86.11,245.526,9.313
86.14,247.983,9.187
86.17,249.352,9.004
86.21,249.843,8.89
86.24,251.212,9.119
86.27,253.352,9.256
86.31,255.598,9.21
86.34,257.318,9.233
86.37,259.003,9.382
86.4,260.477,9.325
86.44,261.53,9.153
86.47,262.723,9.302
86.5,264.828,9.497
86.53,267.215,9.52
86.57,269.18,9.52
86.6,271.04,9.577
86.63,272.62,9.577
86.66,273.532,9.371
86.7,273.848,9.233
86.73,274.445,9.313
86.76,275.743,9.416
86.79,277.252,9.428
86.83,278.796,9.531
86.86,280.551,9.714
86.89,282.341,9.714
86.92,283.499,9.565
86.96,284.131,9.554
86.99,284.973,9.554
87.02,285.991,9.52
87.05,287.149,9.542
87.09,288.623,9.634
87.12,290.062,9.646
87.15,291.185,9.588
87.18,291.887,9.531
87.22,292.273,9.428
87.25,292.168,9.279
87.28,291.957,9.153
87.31,292.133,9.313
87.35,293.221,9.508
87.38,294.133,9.371
87.41,294.484,9.336
87.45,294.484,9.428
87.48,294.8,9.325
87.51,295.432,9.416
87.54,295.818,9.371
87.58,296.344,9.371
87.61,296.941,9.462
87.64,297.572,9.439
87.67,297.818,9.302
87.71,297.186,9.13
87.74,296.204,9.004
87.77,294.94,8.855
87.8,293.782,8.786
87.84,293.431,8.993
87.87,293.887,9.153
87.9,294.168,9.13
87.93,293.431,9.004
87.97,291.887,8.832
88.0,290.167,8.706
88.03,288.448,8.592
88.06,286.974,8.569
88.1,286.342,8.741
88.13,286.201,8.89
88.16,285.745,8.832
88.19,284.482,8.66
88.23,282.341,8.5
88.26,279.955,8.374
88.29,277.779,8.259
88.32,276.059,8.34
88.36,275.357,8.546
88.39,275.076,8.649
88.42,274.339,8.603
88.45,273.111,8.569
88.49,271.426,8.42
88.52,269.25,8.225
88.55,266.969,8.156
88.58,265.39,8.214
88.62,264.091,8.202
88.65,262.863,8.145
88.68,261.494,8.179
88.72,259.985,8.133
88.75,257.985,7.962
88.78,255.563,7.847
88.81,253.177,7.813
88.85,251.387,7.847
88.88,249.667,7.79
88.91,248.123,7.767
88.94,246.965,7.95
88.98,245.596,7.836
89.01,243.245,7.526
89.04,240.472,7.503
89.07,238.683,7.618
89.11,237.419,7.549
89.14,235.91,7.469
89.17,234.296,7.549
89.2,231.874,7.251
89.24,229.453,7.171
89.27,227.417,7.32
89.3,225.381,7.022
89.33,223.486,7.057
89.37,222.223,7.274
89.4,221.24,7.183
89.43,219.485,6.965
89.46,217.59,7.034
89.5,215.66,6.942
89.53,213.063,6.598
89.56,209.904,6.358
89.59,207.062,6.335
89.63,204.675,6.301
89.66,202.78,6.301
89.69,201.096,6.335
89.72,199.411,6.266
89.76,197.165,6.117
89.79,194.427,5.888
89.82,191.304,5.739
89.86,188.426,5.739
89.89,185.899,5.648
89.92,183.688,5.59
89.95,181.548,5.613
89.99,179.407,5.487
90.02,176.389,5.178
90.05,172.739,5.018
90.08,169.334,4.983
90.12,166.106,4.834
90.15,163.123,4.685
90.18,160.631,4.8
90.21,158.595,4.823
90.25,156.244,4.628
90.28,153.015,4.399
90.31,149.435,4.284
90.34,146.031,4.261
90.38,142.627,3.975
90.41,139.644,3.975
90.44,137.117,4.032
90.47,134.976,3.964
90.51,132.414,3.792
90.54,129.115,3.574
90.57,125.36,3.391
90.6,121.5,3.265
90.64,117.92,3.127
90.67,114.481,2.99
90.7,111.392,2.933
90.73,108.304,2.83
90.77,104.759,2.612
90.8,100.688,2.348
90.83,96.161,2.165
90.86,91.634,1.982
90.9,87.317,1.833
90.93,83.211,1.73
90.96,79.631,1.753
90.99,76.437,1.764
91.03,73.419,1.65
91.06,70.05,1.535
91.09,66.681,1.501
91.13,63.347,1.375
91.16,59.943,1.249
91.19,56.644,1.157
91.22,53.52,1.065
91.26,50.397,0.951
91.29,47.273,0.848
91.32,43.869,0.664
91.35,40.079,0.493
91.39,36.113,0.378
91.42,32.358,0.195
91.45,28.392,0.08
91.48,24.496,0.0
91.52,20.636,-0.069
91.55,16.846,-0.115
91.58,13.02,-0.115
91.61,8.984,-0.218
91.65,4.668,-0.252
91.68,0.912,-0.149
91.71,-2.176,-0.103
91.74,-4.633,-0.126
91.78,-6.914,-0.252
91.81,-9.335,-0.573
91.84,-12.529,-1.02
91.87,-16.074,-1.455
91.91,-19.618,-1.81
91.94,-23.233,-2.199
91.97,-27.304,-2.394
92.0,-31.796,-2.429
92.04,-35.692,-2.555
92.07,-39.307,-2.658
92.1,-42.57,-2.623
92.13,-45.764,-2.784
92.17,-49.309,-2.956
92.2,-52.853,-3.059
92.23,-56.433,-3.15
92.27,-59.978,-3.334
92.3,-63.593,-3.471
92.33,-67.172,-3.551
92.36,-70.647,-3.643
92.4,-73.946,-3.792
92.43,-77.42,-3.975
92.46,-80.859,-4.078
92.49,-84.369,-4.17
92.53,-87.843,-4.365
92.56,-91.634,-4.502
92.59,-95.073,-4.502
92.62,-98.302,-4.674
92.66,-101.566,-4.846
92.69,-104.759,-4.846
92.72,-107.497,-4.88
92.75,-110.55,-5.121
92.79,-114.13,-5.315
92.82,-117.99,-5.441
92.85,-121.71,-5.613
92.88,-125.325,-5.716
92.92,-128.343,-5.67
92.95,-131.396,-5.831
92.98,-134.485,-5.991
93.01,-137.573,-5.957
93.05,-140.591,-6.106
93.08,-143.89,-6.266
93.11,-147.575,-6.495
93.14,-151.015,-6.53
93.18,-153.226,-6.255
93.21,-155.086,-6.381
93.24,-158.209,-6.896
93.27,-162.631,-7.045
93.31,-166.386,-6.931
93.34,-169.194,-6.999
93.37,-171.967,-7.228
93.41,-174.915,-7.206
93.44,-177.371,-7.114
93.47,-179.582,-7.194
93.5,-181.688,-7.228
93.54,-183.899,-7.297
93.57,-186.777,-7.549
93.6,-190.567,-7.836
93.63,-194.533,-8.019
93.67,-198.077,-8.019
93.7,-201.236,-8.145
93.73,-204.219,-8.271
93.76,-207.097,-8.202
93.8,-209.518,-8.145
93.83,-211.694,-8.156
93.86,-213.695,-8.111
93.89,-215.625,-8.065
93.93,-217.836,-8.225
93.96,-220.749,-8.42
93.99,-223.907,-8.534
94.02,-226.855,-8.569
94.06,-229.172,-8.603
94.09,-230.751,-8.489
94.12,-231.593,-8.271
94.15,-232.646,-8.351
94.19,-234.225,-8.466
94.22,-235.559,-8.397
94.25,-236.472,-8.328
94.28,-237.665,-8.466
94.32,-239.49,-8.718
94.35,-241.56,-8.786
94.38,-243.385,-8.775
94.41,-245.0,-8.912
94.45,-246.649,-8.981
94.48,-248.018,-8.855
94.51,-248.965,-8.832
94.54,-250.404,-9.027
94.58,-252.826,-9.268
94.61,-255.353,-9.29
94.64,-257.248,-9.268
94.68,-259.003,-9.382
94.71,-260.793,-9.405
94.74,-262.302,-9.279
94.77,-263.179,-9.176
94.81,-264.232,-9.256
94.84,-266.583,-9.611
94.87,-269.637,-9.68
94.9,-271.742,-9.542
94.94,-272.795,-9.474
94.97,-273.602,-9.405
95.0,-273.988,-9.187
95.03,-274.199,-9.107
95.07,-275.111,-9.29
95.1,-276.796,-9.451
95.13,-278.621,-9.462
95.16,-280.481,-9.623
95.2,-282.271,-9.783
95.23,-283.85,-9.703
95.26,-284.833,-9.565
95.29,-285.57,-9.542
95.33,-286.552,-9.554
95.36,-287.921,-9.52
95.39,-289.22,-9.542
95.42,-290.623,-9.634
95.46,-292.027,-9.6
95.49,-292.799,-9.52
95.52,-292.94,-9.439
95.55,-292.975,-9.313
95.59,-292.799,-9.21
95.62,-292.905,-9.222
95.65,-293.466,-9.348
95.68,-294.484,-9.451
95.72,-294.975,-9.371
95.75,-295.045,-9.336
95.78,-295.045,-9.348
95.82,-295.432,-9.405
95.85,-295.853,-9.268
95.88,-295.888,-9.199
95.91,-296.239,-9.382
95.95,-297.151,-9.474
95.98,-297.572,-9.29
96.01,-297.151,-9.199
96.04,-296.274,-9.061
96.08,-295.396,-8.981
96.11,-288.167,-7.263
96.14,-269.25,-3.677
96.17,-248.369,-3.334
96.21,-241.315,-6.713
96.24,-248.579,-8.867
96.27,-257.634,-8.901
96.3,-261.389,-9.726
96.34,-264.162,-11.1
96.37,-268.549,-11.398
96.4,-273.918,-11.364
96.43,-280.341,-11.776
96.47,-286.237,-11.639
96.5,-289.185,-10.768
96.53,-289.044,-10.081
96.56,-287.43,-9.542
96.6,-285.149,-8.752
96.63,-282.166,-8.237
96.66,-279.955,-8.237
96.69,-278.831,-8.282
96.73,-277.463,-8.191
96.76,-275.778,-8.168
96.79,-274.164,-8.294
96.82,-272.374,-8.202
96.86,-270.058,-7.95
96.89,-267.706,-8.007
96.92,-266.548,-8.214
96.95,-265.811,-8.248
96.99,-264.513,-8.145
97.02,-262.933,-8.133
97.05,-261.214,-8.133
97.09,-259.038,-7.904
97.12,-256.335,-7.698
97.15,-254.089,-7.721
97.18,-252.44,-7.847
97.22,-251.247,-7.893
97.25,-250.194,-7.813
97.28,-248.895,-7.847
97.31,-247.878,-7.95
97.35,-246.544,-7.813
97.38,-244.614,-7.526
97.41,-242.017,-7.48
97.44,-239.946,-7.48
97.48,-237.91,-7.32
97.51,-235.524,-7.183
97.54,-233.173,-7.183
97.57,-231.523,-7.24
97.61,-229.347,-7.034
97.64,-226.469,-6.782
97.67,-224.294,-7.045
97.7,-222.96,-7.148
97.74,-221.381,-6.828
97.77,-218.784,-6.724
97.8,-216.783,-6.919
97.83,-215.134,-6.828
97.87,-213.098,-6.518
97.9,-210.15,-6.381
97.93,-207.307,-6.346
97.96,-204.991,-6.301
98.0,-203.307,-6.312
98.03,-201.622,-6.312
98.06,-199.797,-6.255
98.09,-197.375,-6.094
98.13,-194.322,-5.797
98.16,-191.093,-5.705
98.19,-188.391,-5.716
98.23,-186.075,-5.613
98.26,-184.145,-5.579
98.29,-182.249,-5.613
98.32,-179.898,-5.43
98.36,-176.95,-5.178
98.39,-173.476,-5.006
98.42,-169.931,-4.903
98.45,-166.597,-4.8
98.49,-163.474,-4.628
98.52,-160.596,-4.662
98.55,-158.209,-4.708
98.58,-155.542,-4.479
98.62,-152.278,-4.273
98.65,-148.593,-4.181
98.68,-145.049,-4.055
98.71,-141.258,-3.826
98.75,-137.608,-3.689
98.78,-134.555,-3.803
98.81,-132.379,-3.872
98.84,-130.414,-3.815
98.88,-128.098,-3.723
98.91,-125.185,-3.494
98.94,-121.57,-3.265
98.97,-117.744,-3.116
99.01,-114.34,-3.093
99.04,-111.603,-3.013
99.07,-108.9,-2.841
99.1,-105.426,-2.612
99.14,-101.566,-2.417
99.17,-97.214,-2.188
99.2,-92.651,-1.913
99.23,-87.949,-1.73
99.27,-83.807,-1.718
99.3,-80.298,-1.707
99.33,-77.069,-1.604
99.36,-73.63,-1.478
99.4,-70.331,-1.466
99.43,-66.927,-1.34
99.46,-63.206,-1.146
99.5,-59.521,-1.077
99.53,-56.293,-1.088
99.56,-53.415,-1.02
99.59,-50.467,-0.859
99.63,-47.168,-0.687
99.66,-43.623,-0.619
99.69,-39.833,-0.401
99.72,-35.797,-0.149
99.76,-31.761,-0.08
99.79,-28.006,-0.023
99.82,-24.567,0.092
99.85,-21.092,0.172
99.89,-17.513,0.229
99.92,-13.933,0.344
99.95,-10.072,0.447
99.98,-6.001,0.573
100.02,-1.649,0.699
100.05,2.808,0.63
100.08,6.352,0.515
100.11,8.739,0.584
100.15,10.529,0.745
100.18,12.283,1.088
100.21,14.6,1.615
100.24,18.214,2.142
100.28,22.987,2.337
100.31,27.339,2.474
100.34,31.34,2.646
100.37,35.13,2.749
100.41,38.57,2.681
100.44,42.149,2.807
100.47,46.326,3.104
100.5,51.064,3.276
100.54,54.994,3.139
100.57,57.837,3.036
100.6,60.785,3.368
100.64,64.575,3.586
100.67,68.33,3.505
100.7,71.173,3.471
100.73,73.84,3.654
100.77,76.999,3.849
100.8,80.473,3.975
100.83,83.456,3.975
100.86,86.755,4.239
100.9,90.791,4.617
100.93,94.897,4.617
100.96,97.986,4.513
100.99,100.583,4.662
101.03,103.601,4.88
101.06,107.181,4.983
101.09,110.515,5.063
101.12,114.13,5.224
101.16,118.13,5.556
101.19,121.956,5.567
101.22,125.044,5.499
101.25,127.466,5.567
101.29,129.817,5.659
101.32,132.835,5.877
101.35,136.415,6.037
101.38,139.854,6.094
101.42,143.188,6.255
101.45,146.768,6.461
101.48,150.172,6.484
101.51,153.261,6.507
101.55,156.279,6.667
101.58,159.192,6.736
101.61,162.105,6.759
101.64,164.948,6.862
101.68,168.036,7.011
101.71,171.019,7.068
101.74,173.686,7.045
101.77,175.967,7.034
101.81,178.003,7.125
101.84,180.179,7.183
101.87,182.916,7.332
101.91,186.215,7.606
101.94,190.076,7.801
101.97,193.655,7.859
102.0,196.674,7.893
102.04,199.13,7.927
102.07,201.341,7.87
102.1,203.236,7.859
102.13,205.342,7.939
102.17,207.799,8.007
102.2,210.15,8.042
102.23,212.045,8.042
102.26,213.905,8.088
102.3,215.45,8.065
102.33,216.853,8.03
102.36,218.257,8.133
102.39,220.398,8.363
102.43,223.065,8.546
102.46,225.662,8.592
102.49,227.803,8.626
102.52,230.049,8.786
102.56,232.05,8.763
102.59,233.488,8.603
102.62,234.892,8.706
102.65,236.893,8.878
102.69,239.244,8.935
102.72,241.42,8.935
102.75,243.42,8.993
102.78,245.456,9.096
102.82,247.351,9.096
102.85,249.001,9.027
102.88,250.439,9.084
102.91,252.089,9.199
102.95,254.019,9.176
102.98,255.634,9.187
103.01,257.283,9.279
103.05,258.968,9.29
103.08,260.231,9.187
103.11,261.214,9.164
103.14,262.512,9.279
103.18,264.478,9.439
103.21,266.724,9.52
103.24,268.97,9.565
103.27,270.935,9.611
103.31,272.585,9.623
103.34,273.637,9.451
103.37,273.953,9.268
103.4,274.515,9.348
103.44,275.813,9.462
103.47,277.393,9.451
103.5,278.867,9.554
103.53,280.762,9.714
103.57,282.552,9.726
103.6,283.745,9.623
103.63,284.517,9.542
103.66,285.184,9.542
103.7,286.237,9.531
103.73,287.325,9.52
103.76,288.623,9.623
103.79,290.027,9.668
103.83,291.185,9.611
103.86,291.852,9.531
103.89,292.273,9.451
103.92,292.554,9.359
103.96,292.589,9.268
103.99,292.799,9.302
104.02,293.922,9.542
104.05,294.414,9.302
104.09,293.993,9.096
104.12,293.887,9.405
104.15,294.695,9.416
104.19,295.396,9.359
104.22,295.642,9.336
104.25,296.063,9.416
104.28,296.765,9.542
104.32,297.537,9.439
104.35,297.643,9.268
104.38,296.835,9.096
104.41,295.432,8.912
104.45,293.852,8.752
104.48,292.519,8.741
104.51,292.308,8.981
104.54,293.08,9.245
104.58,293.887,9.256
104.61,293.536,9.084
104.64,292.133,8.901
104.67,290.343,8.729
104.71,288.448,8.58
104.74,286.868,8.534
104.77,286.061,8.66
104.8,285.78,8.821
104.84,285.359,8.763
104.87,284.061,8.649
104.9,282.166,8.557
104.93,280.025,8.42
104.97,277.919,8.328
105.0,276.27,8.374
105.03,275.392,8.534
105.06,275.006,8.592
105.1,274.164,8.557
105.13,273.041,8.569
105.16,271.532,8.443
105.19,269.426,8.259
105.23,267.426,8.191
105.26,265.881,8.237
105.29,264.618,8.248
105.32,263.354,8.191
105.36,261.88,8.156
105.39,260.301,8.145
105.42,258.195,7.985
105.46,255.669,7.79
105.49,253.072,7.778
105.52,251.247,7.881
105.55,249.773,7.836
105.59,248.404,7.813
105.62,247.035,7.916
105.65,245.912,7.927
105.68,244.157,7.721
105.72,241.595,7.458
105.75,239.104,7.492
105.78,237.419,7.549
105.81,235.945,7.458
105.85,234.225,7.389
105.88,232.33,7.389
105.91,230.4,7.332
105.94,227.979,7.125
105.98,225.241,6.942
106.01,222.82,6.988
106.04,221.065,7.057
106.07,219.521,6.988
106.11,217.871,6.942
106.14,216.011,6.908
106.17,214.291,6.839
106.2,211.835,6.633
106.24,209.203,6.461
106.27,206.641,6.472
106.3,204.008,6.255
106.33,202.113,6.427
106.37,201.552,6.724
106.4,200.604,6.472
106.43,197.902,5.98
106.46,194.217,5.888
106.5,191.269,5.934
106.53,188.812,5.819
106.56,185.864,5.373
106.6,183.022,5.499
106.63,181.548,5.785
106.66,180.003,5.544
106.69,176.634,4.995
106.73,172.212,4.937
106.76,169.124,5.132
106.79,166.737,4.983
106.82,163.614,4.548
106.86,160.526,4.754
106.89,158.174,4.834
106.92,156.49,4.8
106.95,154.279,4.662
106.99,151.366,4.422
107.02,147.786,4.261
107.05,144.206,4.101
107.08,140.556,3.872
107.12,136.977,3.723
107.15,133.607,3.666
107.18,130.8,3.643
107.21,127.992,3.528
107.25,124.834,3.391
107.28,121.289,3.23
107.31,117.534,3.127
107.34,113.989,2.978
107.38,110.901,2.956
107.41,108.128,2.91
107.44,105.04,2.681
107.47,101.144,2.417
107.51,96.582,2.188
107.54,91.914,2.016
107.57,87.492,1.879
107.6,83.351,1.741
107.64,79.701,1.741
107.67,76.472,1.764
107.7,73.489,1.673
107.73,70.155,1.535
107.77,66.576,1.443
107.8,63.136,1.306
107.83,59.627,1.191
107.87,56.187,1.111
107.9,53.064,1.031
107.93,50.046,0.939
107.96,46.922,0.825
108.0,43.378,0.642
108.03,39.728,0.504
108.06,36.008,0.424
108.09,32.533,0.321
108.13,29.129,0.206
108.16,25.62,0.115
108.19,22.005,0.023
108.22,18.039,-0.103
108.26,13.828,-0.206
108.29,9.581,-0.286
108.32,5.159,-0.263
108.35,0.877,-0.252
108.39,-2.948,-0.206
108.42,-5.861,-0.195
108.45,-8.072,-0.286
108.48,-9.792,-0.481
108.52,-11.932,-0.871
108.55,-14.915,-1.478
108.58,-18.811,-2.016
108.61,-23.409,-2.325
108.65,-28.252,-2.451
108.68,-32.884,-2.486
108.71,-36.71,-2.6
108.74,-40.184,-2.658
108.78,-43.553,-2.738
108.81,-46.922,-2.887
108.84,-50.467,-2.99
108.87,-54.047,-3.059
108.91,-57.626,-3.23
108.94,-61.276,-3.368
108.97,-64.61,-3.425
109.01,-67.348,-3.368
109.04,-69.524,-3.368
109.07,-72.191,-3.654
109.1,-75.42,-3.803
109.14,-78.719,-3.815
109.17,-81.982,-4.067
109.2,-85.738,-4.342
109.23,-89.809,-4.525
109.27,-93.81,-4.685
109.3,-97.565,-4.811
109.33,-101.074,-4.834
109.36,-104.163,-4.926
109.4,-107.532,-5.098
109.43,-111.322,-5.327
109.46,-115.182,-5.43
109.49,-118.692,-5.476
109.53,-121.991,-5.59
109.56,-125.43,-5.705
109.59,-128.448,-5.739
109.62,-131.467,-5.797
109.66,-134.695,-6.003
109.69,-137.819,-5.991
109.72,-141.083,-6.175
109.75,-144.487,-6.346
109.79,-147.961,-6.427
109.82,-151.05,-6.472
109.85,-153.436,-6.438
109.88,-155.788,-6.518
109.92,-158.56,-6.679
109.95,-161.649,-6.77
109.98,-164.877,-6.896
110.01,-168.211,-7.057
110.05,-171.51,-7.206
110.08,-174.423,-7.24
110.11,-176.845,-7.206
110.14,-178.775,-7.171
110.18,-180.951,-7.309
110.21,-184.145,-7.561
110.24,-189.058,-8.076
110.28,-194.743,-8.454
110.31,-199.446,-8.282
110.34,-201.868,-8.042
110.37,-203.482,-8.03
110.41,-205.202,-7.962
110.44,-206.921,-7.767
110.47,-208.255,-7.675
110.5,-209.624,-7.744
110.54,-211.133,-7.813
110.57,-212.431,-7.744
110.6,-213.098,-7.71
110.63,-213.239,-7.687
110.67,-213.554,-7.687
110.7,-214.186,-7.79
110.73,-215.555,-8.019
110.76,-217.696,-8.294
110.8,-220.398,-8.546
110.83,-223.416,-8.786
110.86,-226.61,-8.993
110.89,-229.663,-9.084
110.93,-232.33,-9.096
110.96,-234.541,-9.084
110.99,-236.682,-9.119
111.02,-238.753,-9.096
111.06,-240.894,-9.13
111.09,-243.35,-9.21
111.12,-245.421,-9.13
111.15,-247.105,-9.13
111.19,-248.579,-9.153
111.22,-250.159,-9.142
111.25,-251.668,-9.107
111.28,-253.177,-9.142
111.32,-254.686,-9.187
111.35,-256.476,-9.279
111.38,-258.441,-9.371
111.42,-260.442,-9.428
111.45,-262.126,-9.382
111.48,-263.46,-9.348
111.51,-264.723,-9.371
111.55,-266.022,-9.371
111.58,-267.531,-9.428
111.61,-269.356,-9.565
111.64,-271.286,-9.623
111.68,-272.725,-9.554
111.71,-273.778,-9.52
111.74,-274.725,-9.52
111.77,-275.673,-9.485
111.81,-276.796,-9.485
111.84,-278.481,-9.611
111.87,-279.884,-9.554
111.9,-281.148,-9.577
111.94,-282.552,-9.703
111.97,-283.745,-9.554
112.0,-284.587,-9.565
112.03,-285.78,-9.646
112.07,-286.868,-9.588
112.1,-288.272,-9.634
112.13,-289.465,-9.657
112.16,-290.308,-9.6
112.2,-291.185,-9.611
112.23,-292.413,-9.634
112.26,-293.01,-9.508
112.29,-292.448,-9.164
112.33,-291.852,-9.245
112.36,-292.694,-9.474
112.39,-294.133,-9.485
112.42,-294.659,-9.29
112.46,-294.87,-9.439
112.49,-295.537,-9.623
112.52,-296.309,-9.474
112.55,-296.133,-9.176
112.59,-295.537,-9.222
112.62,-295.712,-9.405
112.65,-296.274,-9.279
112.69,-295.326,-8.947
112.72,-292.554,-8.534
112.75,-288.623,-8.168
112.78,-285.254,-8.202
112.82,-283.92,-8.523
112.85,-284.798,-8.981
112.88,-286.693,-9.416
112.91,-288.763,-9.68
112.95,-290.237,-9.783
112.98,-291.255,-9.749
113.01,-292.027,-9.68
113.04,-292.343,-9.565
113.08,-292.519,-9.405
113.11,-292.729,-9.325
113.14,-292.834,-9.199
113.17,-292.133,-8.935
113.21,-290.483,-8.637
113.24,-287.921,-8.34
113.27,-284.763,-8.065
113.3,-281.709,-7.939
113.34,-279.253,-7.985
113.37,-277.603,-8.191
113.4,-276.656,-8.294
113.43,-275.392,-8.282
113.47,-273.497,-8.248
113.5,-271.181,-8.191
113.53,-268.794,-8.03
113.56,-266.513,-8.042
113.6,-264.828,-8.122
113.63,-263.6,-8.133
113.66,-262.161,-8.145
113.69,-260.757,-8.168
113.73,-259.354,-8.111
113.76,-257.143,-7.985
113.79,-253.914,-7.641
113.83,-251.212,-7.71
113.86,-249.843,-8.019
113.89,-249.246,-7.95
113.92,-247.737,-7.801
113.96,-245.386,-7.732
113.99,-243.42,-7.79
114.02,-242.052,-7.79
114.05,-240.578,-7.641
114.09,-238.683,-7.572
114.12,-236.928,-7.572
114.15,-235.278,-7.503
114.18,-233.278,-7.435
114.22,-231.488,-7.446
114.25,-229.909,-7.343
114.28,-227.838,-7.171
114.31,-225.206,-6.999
114.35,-222.784,-6.954
114.38,-220.573,-6.942
114.41,-218.713,-6.919
114.44,-217.064,-6.931
114.48,-215.52,-6.931
114.51,-213.73,-6.816
114.54,-211.484,-6.587
114.57,-208.887,-6.507
114.61,-206.255,-6.438
114.64,-203.938,-6.301
114.67,-201.938,-6.369
114.7,-200.323,-6.427
114.74,-198.709,-6.266
114.77,-196.463,-6.117
114.8,-193.69,-5.923
114.83,-190.813,-5.785
114.87,-188.075,-5.716
114.9,-185.268,-5.556
114.93,-182.811,-5.533
114.97,-181.021,-5.636
115.0,-178.986,-5.441
115.03,-175.897,-5.144
115.06,-172.107,-4.995
115.1,-168.808,-4.949
115.13,-165.649,-4.811
115.16,-162.842,-4.72
115.19,-160.526,-4.823
115.23,-159.192,-4.937
115.26,-157.156,-4.697
115.29,-153.436,-4.25
115.32,-148.909,-4.147
115.36,-145.224,-4.078
115.39,-143.013,-4.261
115.42,-141.118,-4.147
115.45,-138.38,-3.815
115.49,-134.695,-3.677
115.52,-131.361,-3.712
115.55,-128.413,-3.551
115.58,-125.22,-3.356
115.62,-121.605,-3.196
115.65,-117.78,-3.059
115.68,-114.095,-2.944
115.71,-111.041,-2.887
115.75,-108.128,-2.83
115.78,-104.829,-2.612
115.81,-101.004,-2.348
115.84,-96.652,-2.154
115.88,-91.985,-1.97
115.91,-87.387,-1.764
115.94,-83.035,-1.661
115.97,-79.28,-1.673
116.01,-75.946,-1.627
116.04,-72.752,-1.524
116.07,-69.524,-1.443
116.1,-66.154,-1.375
116.14,-63.171,-1.317
116.17,-60.364,-1.294
116.2,-57.591,-1.18
116.24,-54.503,-0.974
116.27,-50.888,-0.79
116.3,-47.098,-0.63
116.33,-43.132,-0.412
116.37,-38.78,-0.206
116.4,-34.534,-0.057
116.43,-30.428,0.046
116.46,-26.497,0.137
116.5,-22.672,0.206
116.53,-18.987,0.241
116.56,-15.302,0.332
116.59,-11.511,0.367
116.63,-7.861,0.412
116.66,-4.387,0.447
116.69,-1.123,0.332
