Trigger_Date,2023/06/23
Trigger_Time,T 11:03:05.148 PDT
Samples_Per_Cycle,512
Microseconds_Per_Sample,32.555
Time (ms),Voltage (V),Current (A)
-16.67,5.65,0.676
-16.64,7.195,0.642
-16.6,8.563,0.825
-16.57,10.774,1.008
-16.54,13.652,1.111
-16.51,16.705,1.18
-16.47,19.794,1.283
-16.44,23.444,1.535
-16.41,27.971,1.936
-16.38,33.235,2.062
-16.34,38.043,1.947
-16.31,41.939,1.787
-16.28,45.483,1.753
-16.24,49.133,1.913
-16.21,52.853,1.97
-16.18,56.258,1.81
-16.15,59.486,1.97
-16.11,63.242,2.177
-16.08,66.962,2.016
-16.05,70.015,1.959
-16.02,73.068,2.085
-15.98,76.086,2.028
-15.95,78.894,2.028
-15.92,81.702,2.165
-15.89,85.071,2.474
-15.85,89.528,2.761
-15.82,94.266,2.726
-15.79,98.126,2.669
-15.76,102.057,2.726
-15.72,106.023,2.555
-15.69,108.9,2.337
-15.66,111.041,2.44
-15.63,113.638,2.875
-15.59,117.955,3.196
-15.56,122.623,3.185
-15.53,126.518,3.208
-15.5,130.238,3.208
-15.46,133.397,3.139
-15.43,135.994,2.864
-15.4,137.749,2.887
-15.37,140.486,3.322
-15.33,144.417,3.54
-15.3,148.418,3.54
-15.27,152.278,3.574
-15.24,156.033,3.608
-15.2,159.122,3.379
-15.17,161.649,3.15
-15.14,163.614,3.288
-15.11,166.246,3.677
-15.07,169.791,3.792
-15.04,173.09,3.769
-15.01,175.441,3.918
-14.98,178.389,3.998
-14.94,181.758,3.677
-14.91,184.18,3.7
-14.88,184.952,3.276
-14.84,180.354,1.604
-14.81,171.791,0.916
-14.78,166.422,2.36
-14.75,168.176,3.929
-14.71,174.458,5.029
-14.68,182.214,5.544
-14.65,189.128,5.155
-14.62,196.042,5.132
-14.58,202.184,5.178
-14.55,206.992,5.361
-14.52,212.712,5.235
-14.49,217.239,4.949
-14.45,220.503,4.731
-14.42,222.433,4.456
-14.39,223.03,4.181
-14.36,222.855,4.353
-14.32,224.399,4.662
-14.29,227.066,4.926
-14.26,230.4,5.132
-14.23,233.734,4.983
-14.19,236.261,5.109
-14.16,238.823,5.121
-14.13,240.543,4.536
-14.1,240.472,4.605
-14.06,242.824,4.8
-14.03,244.965,4.754
-14.0,245.912,5.029
-13.97,247.562,5.144
-13.93,249.808,5.109
-13.9,252.089,4.972
-13.87,253.598,4.72
-13.84,254.3,4.914
-13.8,255.634,5.166
-13.77,257.985,5.155
-13.74,259.845,5.281
-13.71,262.407,5.51
-13.67,264.969,5.522
-13.64,266.934,5.441
-13.61,268.057,5.396
-13.58,268.689,5.567
-13.54,270.093,5.67
-13.51,271.391,5.819
-13.48,273.532,5.831
-13.45,274.76,5.888
-13.41,275.778,6.037
-13.38,276.831,5.854
-13.35,276.761,5.751
-13.31,277.463,5.968
-13.28,278.972,6.209
-13.25,280.376,6.392
-13.22,281.955,6.644
-13.18,283.955,6.839
-13.15,285.991,6.793
-13.12,287.044,6.828
-13.09,288.342,6.816
-13.05,289.886,6.415
-13.02,291.08,6.209
-12.99,291.817,6.438
-12.96,292.729,6.919
-12.92,294.028,6.954
-12.89,294.695,6.999
-12.86,295.747,6.862
-12.83,295.782,6.736
-12.79,295.958,6.885
-12.76,297.011,6.369
-12.73,296.906,6.209
-12.7,297.116,6.759
-12.66,298.415,6.644
-12.63,299.187,6.209
-12.6,299.643,6.175
-12.57,299.538,6.415
-12.53,299.222,6.449
-12.5,299.152,6.003
-12.47,298.625,5.957
-12.44,299.397,6.369
-12.4,300.45,6.026
-12.37,299.783,5.888
-12.34,299.222,5.98
-12.31,298.73,6.037
-12.27,298.309,6.003
-12.24,296.66,6.026
-12.21,296.344,6.255
-12.18,297.186,6.415
-12.14,298.38,6.301
-12.11,298.45,5.98
-12.08,296.309,5.923
-12.05,294.8,5.728
-12.01,293.396,5.384
-11.98,292.378,5.315
-11.95,291.957,5.407
-11.92,290.869,5.705
-11.88,290.027,5.819
-11.85,289.851,5.567
-11.82,289.43,5.144
-11.78,286.833,4.914
-11.75,283.289,4.914
-11.72,280.27,4.96
-11.69,279.358,5.132
-11.65,280.446,5.063
-11.62,280.305,4.857
-11.59,278.27,4.914
-11.56,276.199,4.811
-11.52,273.778,4.571
-11.49,271.848,4.525
-11.46,271.286,4.491
-11.43,270.689,4.353
-11.39,269.215,4.273
-11.36,267.496,4.147
-11.33,265.46,4.101
-11.3,263.425,4.135
-11.26,261.67,3.941
-11.23,259.494,3.838
-11.2,257.88,4.101
-11.17,256.757,4.113
-11.13,254.791,3.998
-11.1,253.563,3.987
-11.07,251.562,4.204
-11.04,250.229,4.307
-11.0,249.036,3.883
-10.97,247.0,3.723
-10.94,245.667,3.712
-10.91,243.105,3.62
-10.87,239.946,3.471
-10.84,237.314,3.505
-10.81,235.629,3.586
-10.78,233.804,3.563
-10.74,231.699,3.414
-10.71,229.523,3.265
-10.68,226.54,3.414
-10.65,224.715,3.517
-10.61,223.346,3.242
-10.58,220.959,3.356
-10.55,219.205,3.494
-10.52,217.45,3.082
-10.48,214.467,2.795
-10.45,210.992,2.944
-10.42,208.957,2.875
-10.38,206.746,2.852
-10.35,204.675,3.07
-10.32,203.271,3.036
-10.29,201.201,3.024
-10.25,198.885,2.864
-10.22,196.428,2.543
-10.19,193.726,2.383
-10.16,190.462,2.325
-10.12,187.303,2.383
-10.09,184.601,2.577
-10.06,182.425,2.658
-10.03,180.565,2.36
-9.99,177.898,2.016
-9.96,174.002,1.982
-9.93,170.177,1.81
-9.9,165.825,1.753
-9.86,162.315,2.005
-9.83,159.262,2.016
-9.8,156.525,2.039
-9.77,154.173,1.982
-9.73,151.506,1.925
-9.7,148.628,1.833
-9.67,145.435,1.741
-9.64,142.346,1.776
-9.6,139.89,1.673
-9.57,137.398,1.638
-9.54,135.046,1.592
-9.51,132.169,1.363
-9.47,128.729,1.26
-9.44,124.974,1.18
-9.41,120.938,0.882
-9.38,116.341,0.653
-9.34,111.673,0.882
-9.31,108.514,1.111
-9.28,105.672,0.962
-9.25,102.408,0.802
-9.21,98.898,0.63
-9.18,94.336,0.458
-9.15,89.668,0.355
-9.12,85.141,0.378
-9.08,81.316,0.573
-9.05,78.403,0.699
-9.02,75.806,0.722
-8.99,73.314,0.596
-8.95,70.296,0.389
-8.92,66.716,0.16
-8.89,62.505,0.092
-8.85,58.574,0.057
-8.82,54.749,0.069
-8.79,51.344,0.126
-8.76,48.045,0.126
-8.72,44.817,-0.034
-8.69,41.061,-0.206
-8.66,36.955,-0.286
-8.63,32.744,-0.401
-8.59,28.462,-0.401
-8.56,24.532,-0.367
-8.53,20.987,-0.378
-8.5,17.618,-0.355
-8.46,14.178,-0.389
-8.43,10.739,-0.424
-8.4,7.44,-0.344
-8.37,4.282,-0.344
-8.33,1.158,-0.458
-8.3,-2.422,-0.527
-8.27,-6.001,-0.504
-8.24,-9.862,-0.527
-8.2,-13.126,-0.493
-8.17,-16.039,-0.722
-8.14,-20.145,-0.825
-8.11,-24.075,-0.916
-8.07,-28.708,-1.18
-8.04,-33.34,-1.168
-8.01,-37.376,-1.123
-7.98,-40.746,-0.951
-7.94,-43.483,-0.848
-7.91,-46.15,-0.962
-7.88,-49.028,-1.203
-7.85,-52.643,-1.34
-7.81,-56.503,-1.409
-7.78,-60.153,-1.546
-7.75,-64.014,-1.569
-7.72,-67.593,-1.524
-7.68,-70.857,-1.65
-7.65,-74.472,-1.73
-7.62,-78.192,-1.661
-7.59,-81.245,-1.707
-7.55,-84.544,-1.799
-7.52,-88.475,-1.879
-7.49,-92.441,-2.028
-7.46,-96.231,-2.154
-7.42,-99.951,-2.096
-7.39,-103.04,-2.154
-7.36,-106.268,-2.165
-7.32,-109.427,-2.131
-7.29,-112.515,-2.303
-7.26,-115.919,-2.486
-7.23,-119.675,-2.612
-7.19,-123.921,-2.715
-7.16,-127.711,-2.749
-7.13,-131.01,-2.669
-7.1,-134.099,-2.612
-7.06,-137.012,-2.669
-7.03,-140.205,-2.749
-7.0,-143.75,-2.749
-6.97,-147.751,-2.99
-6.93,-151.787,-3.162
-6.9,-155.016,-2.864
-6.87,-156.77,-2.486
-6.84,-157.262,-2.6
-6.8,-158.981,-3.311
-6.77,-162.631,-3.563
-6.74,-166.667,-3.517
-6.71,-170.036,-3.654
-6.67,-174.283,-3.62
-6.64,-177.371,-3.54
-6.61,-180.003,-3.54
-6.58,-182.144,-3.46
-6.54,-183.829,-3.62
-6.51,-186.531,-3.826
-6.48,-190.286,-4.021
-6.45,-195.164,-4.055
-6.41,-199.095,-3.975
-6.38,-201.341,-3.872
-6.35,-202.921,-3.838
-6.32,-204.71,-3.677
-6.28,-205.939,-3.78
-6.25,-207.799,-3.952
-6.22,-209.834,-4.101
-6.19,-212.431,-4.296
-6.15,-215.309,-4.307
-6.12,-217.134,-4.296
-6.09,-218.468,-4.365
-6.06,-220.117,-4.353
-6.02,-222.047,-4.353
-5.99,-224.469,-4.399
-5.96,-226.364,-4.617
-5.92,-228.926,-4.766
-5.89,-231.699,-4.777
-5.86,-234.506,-4.788
-5.83,-236.928,-4.731
-5.79,-239.069,-4.674
-5.76,-240.858,-4.513
-5.73,-241.525,-4.823
-5.7,-243.842,-5.006
-5.66,-245.772,-4.926
-5.63,-247.842,-5.178
-5.6,-250.65,-5.189
-5.57,-252.58,-4.834
-5.53,-252.65,-4.937
-5.5,-252.826,-5.418
-5.47,-254.897,-5.567
-5.44,-257.423,-5.464
-5.4,-258.968,-5.716
-5.37,-261.319,-5.9
-5.34,-263.319,-5.819
-5.31,-264.688,-5.751
-5.27,-264.934,-5.934
-5.24,-265.565,-6.22
-5.21,-266.689,-6.484
-5.18,-268.513,-6.896
-5.14,-271.777,-6.919
-5.11,-274.234,-6.942
-5.08,-276.305,-6.999
-5.05,-277.603,-6.747
-5.01,-277.989,-6.575
-4.98,-278.41,-6.61
-4.95,-279.042,-6.747
-4.92,-280.376,-6.77
-4.88,-282.236,-6.759
-4.85,-284.096,-6.896
-4.82,-285.64,-7.034
-4.79,-286.166,-7.24
-4.75,-286.237,-7.629
-4.72,-287.746,-7.526
-4.69,-289.009,-7.24
-4.66,-290.659,-7.137
-4.62,-292.133,-7.16
-4.59,-293.536,-7.458
-4.56,-295.712,-7.068
-4.53,-295.993,-6.896
-4.49,-296.274,-7.183
-4.46,-296.835,-6.908
-4.43,-296.625,-6.633
-4.39,-295.853,-6.85
-4.36,-296.344,-7.377
-4.33,-297.888,-7.114
-4.3,-298.274,-6.999
-4.26,-299.222,-7.034
-4.23,-299.678,-7.011
-4.2,-300.134,-6.965
-4.17,-299.327,-6.873
-4.13,-298.766,-7.24
-4.1,-300.204,-6.999
-4.07,-300.555,-6.873
-4.04,-300.45,-7.091
-4.0,-300.626,-6.782
-3.97,-299.959,-6.633
-3.94,-298.871,-6.69
-3.91,-297.713,-6.541
-3.87,-296.8,-6.507
-3.84,-297.046,-6.633
-3.81,-296.941,-6.633
-3.78,-296.484,-6.449
-3.74,-296.169,-6.049
-3.71,-294.695,-5.819
-3.68,-292.273,-5.785
-3.65,-290.167,-5.831
-3.61,-288.904,-6.117
-3.58,-288.693,-6.61
-3.55,-289.711,-6.61
-3.52,-289.079,-6.415
-3.48,-287.43,-6.289
-3.45,-285.675,-5.819
-3.42,-283.289,-5.441
-3.39,-281.218,-5.35
-3.35,-278.831,-5.579
-3.32,-277.357,-5.9
-3.29,-277.042,-5.842
-3.26,-276.199,-5.842
-3.22,-274.866,-5.797
-3.19,-273.076,-5.51
-3.16,-271.005,-5.27
-3.13,-268.549,-5.441
-3.09,-268.127,-5.464
-3.06,-267.776,-5.166
-3.03,-267.11,-4.983
-3.0,-265.495,-4.857
-2.96,-263.354,-4.605
-2.93,-260.933,-4.17
-2.9,-258.757,-4.135
-2.86,-257.037,-4.216
-2.83,-255.247,-4.319
-2.8,-253.598,-4.158
-2.77,-251.773,-4.239
-2.73,-251.176,-4.342
-2.7,-249.387,-4.17
-2.67,-247.316,-3.746
-2.64,-244.473,-3.551
-2.6,-242.332,-3.78
-2.57,-240.753,-3.723
-2.54,-238.367,-3.54
-2.51,-235.735,-3.757
-2.47,-234.647,-3.838
-2.44,-233.102,-3.563
-2.41,-231.102,-3.494
-2.38,-228.294,-3.311
-2.34,-225.803,-3.379
-2.31,-224.048,-3.586
-2.28,-222.855,-3.54
-2.25,-221.556,-3.196
-2.21,-219.31,-3.162
-2.18,-216.467,-3.093
-2.15,-213.239,-2.852
-2.12,-210.361,-2.818
-2.08,-208.115,-2.967
-2.05,-206.36,-2.944
-2.02,-204.395,-3.001
-1.99,-202.815,-3.001
-1.95,-200.78,-2.864
-1.92,-197.972,-2.681
-1.89,-195.059,-2.36
-1.86,-191.585,-2.303
-1.82,-188.707,-2.28
-1.79,-185.934,-2.314
-1.76,-183.794,-2.497
-1.73,-181.583,-2.509
-1.69,-179.688,-2.303
-1.66,-177.161,-1.89
-1.63,-173.055,-1.959
-1.6,-169.756,-1.764
-1.56,-165.895,-1.615
-1.53,-162.315,-1.879
-1.5,-160.245,-2.039
-1.46,-158.56,-1.844
-1.43,-156.068,-1.581
-1.4,-152.91,-1.26
-1.37,-148.523,-1.191
-1.33,-144.382,-1.191
-1.3,-140.276,-1.168
-1.27,-137.292,-1.524
-1.24,-135.292,-1.569
-1.2,-133.362,-1.489
-1.17,-131.01,-1.352
-1.14,-127.992,-1.226
-1.11,-125.079,-1.111
-1.07,-121.324,-0.699
-1.04,-116.165,-0.504
-1.01,-111.638,-0.642
-0.98,-108.163,-0.756
-0.94,-104.97,-0.733
-0.91,-101.706,-0.687
-0.88,-98.091,-0.596
-0.85,-94.371,-0.344
-0.81,-89.844,-0.218
-0.78,-85.878,-0.344
-0.75,-83.0,-0.424
-0.72,-80.333,-0.481
-0.68,-77.701,-0.309
-0.65,-74.367,-0.057
-0.62,-70.576,0.057
-0.59,-66.576,0.229
-0.55,-62.224,0.344
-0.52,-58.012,0.401
-0.49,-53.731,0.389
-0.46,-49.625,0.412
-0.42,-45.764,0.47
-0.39,-41.939,0.515
-0.36,-38.359,0.573
-0.33,-34.499,0.71
-0.29,-30.287,0.825
-0.26,-26.041,0.848
-0.23,-22.25,0.825
-0.2,-18.741,0.871
-0.16,-15.547,0.916
-0.13,-12.845,0.825
-0.1,-10.423,0.745
-0.07,-7.791,0.905
-0.03,-4.527,1.042
0.0,-1.193,1.042
0.03,2.632,1.203
0.07,6.914,1.386
0.1,11.371,1.214
0.13,14.635,1.031
0.16,17.618,1.283
0.2,21.689,1.466
0.23,25.655,1.386
0.26,29.445,1.455
0.29,33.34,1.546
0.33,37.201,1.512
0.36,40.57,1.466
0.39,43.694,1.512
0.42,46.922,1.65
0.46,50.537,1.695
0.49,53.836,1.718
0.52,57.03,1.73
0.55,60.013,1.833
0.59,63.768,1.97
0.62,67.488,1.993
0.65,71.103,2.005
0.68,74.788,2.096
0.72,78.543,2.199
0.75,82.228,2.119
0.78,85.457,2.096
0.81,88.861,2.268
0.85,92.476,2.383
0.88,95.95,2.486
0.91,99.67,2.497
0.94,103.461,2.52
0.98,107.005,2.589
1.01,110.41,2.532
1.04,113.498,2.543
1.07,116.692,2.852
1.11,120.447,2.933
1.14,124.202,2.818
1.17,127.922,3.001
1.2,131.291,3.093
1.24,134.415,3.024
1.27,137.573,3.013
1.3,140.591,3.093
1.33,144.031,3.173
1.37,147.47,3.345
1.4,150.664,3.46
1.43,153.928,3.219
1.46,156.033,3.196
1.5,159.332,3.505
1.53,162.386,3.448
1.56,165.193,3.414
1.6,167.79,3.402
1.63,170.668,3.643
1.66,174.142,3.586
1.69,176.073,3.517
1.73,177.126,3.334
1.76,177.336,3.139
1.79,178.073,3.276
1.82,180.249,3.838
1.86,184.355,4.353
1.89,189.409,4.697
1.92,194.884,4.674
1.95,199.341,4.651
1.99,203.482,4.422
2.02,206.079,4.124
2.05,207.623,4.17
2.08,209.343,4.387
2.12,212.502,4.502
2.15,215.976,4.33
2.18,218.152,4.422
2.21,220.468,4.387
2.25,221.767,4.227
2.28,223.065,4.021
2.31,223.872,4.124
2.34,225.381,4.445
2.38,227.733,4.766
2.41,230.821,4.846
2.44,233.348,4.869
2.47,235.699,4.88
2.51,237.805,4.536
2.54,238.121,4.273
2.57,238.402,4.617
2.6,240.157,4.834
2.64,241.631,5.144
2.67,244.93,5.292
2.7,247.807,4.869
2.73,249.562,4.937
2.77,251.492,5.132
2.8,253.352,5.018
2.83,254.265,4.628
2.86,255.072,4.834
2.9,257.002,5.258
2.93,259.634,5.281
2.96,261.705,5.155
3.0,263.916,5.327
3.03,265.495,5.315
3.06,265.32,5.281
3.09,265.881,5.453
3.13,267.531,5.659
3.16,269.321,5.945
3.19,271.602,6.049
3.22,273.462,6.175
3.26,275.954,6.163
3.29,277.603,6.026
3.32,278.621,5.785
3.35,278.41,5.934
3.39,278.972,6.335
3.42,280.586,6.232
3.45,281.815,6.461
3.48,283.78,6.828
3.52,285.71,6.839
3.55,286.763,6.908
3.58,287.921,6.908
3.61,288.728,6.896
3.65,289.711,7.057
3.68,291.536,6.896
3.71,293.291,6.736
3.74,294.94,6.793
3.78,296.484,6.69
3.81,297.256,6.449
3.84,296.906,6.61
3.87,297.081,6.449
3.91,296.204,6.175
3.94,295.572,6.461
3.97,297.221,6.747
4.0,298.555,6.472
4.04,298.59,6.415
4.07,298.871,6.541
4.1,299.432,6.449
4.13,299.046,6.461
4.17,298.625,6.575
4.2,299.152,6.816
4.23,300.836,7.125
4.26,301.819,6.965
4.3,301.889,6.713
4.33,302.135,6.828
4.36,302.626,6.53
4.39,302.135,6.197
4.43,300.38,5.957
4.46,299.187,6.117
4.49,299.467,6.186
4.53,298.766,6.129
4.56,298.309,5.888
4.59,297.256,5.556
4.62,294.905,5.567
4.66,292.764,5.544
4.69,291.08,5.43
4.72,290.167,5.67
4.75,290.623,5.957
4.79,291.431,5.648
4.82,289.781,5.418
4.85,287.184,5.453
4.88,284.833,5.201
4.92,282.762,4.972
4.95,281.429,4.914
4.98,280.692,4.96
5.01,279.323,5.04
5.05,277.393,5.235
5.08,276.585,5.075
5.11,274.866,5.029
5.14,274.269,4.857
5.18,272.83,4.605
5.21,271.181,4.605
5.24,268.549,4.88
5.27,267.601,4.96
5.31,267.39,4.628
5.34,266.689,4.468
5.37,264.969,4.17
5.4,261.705,3.838
5.44,258.371,3.677
5.47,255.634,3.826
5.5,252.826,4.09
5.53,250.896,4.307
5.57,250.369,4.513
5.6,250.018,4.502
5.63,248.755,4.17
5.66,246.298,3.975
5.7,244.508,3.975
5.73,242.999,3.872
5.76,241.315,3.654
5.79,238.893,3.7
5.83,237.033,3.78
5.86,235.068,3.826
5.89,233.418,3.677
5.92,230.4,3.356
5.96,227.663,3.792
5.99,227.312,3.883
6.02,226.013,3.666
6.06,223.592,3.746
6.09,221.556,3.872
6.12,220.012,3.723
6.15,218.257,3.345
6.19,215.274,3.104
6.22,212.151,3.036
6.25,209.343,2.933
6.28,206.606,3.059
6.32,205.096,3.093
6.35,203.938,2.956
6.38,201.447,2.887
6.41,197.972,2.749
6.45,195.024,2.463
6.48,192.076,2.383
6.51,188.707,2.486
6.54,186.145,2.474
6.58,183.899,2.612
6.61,181.828,2.704
6.64,179.582,2.337
6.67,175.932,2.119
6.71,172.037,2.199
6.74,168.633,2.085
6.77,165.123,1.982
6.8,162.105,2.199
6.84,159.964,2.383
6.87,158.174,2.348
6.9,156.068,1.993
6.93,152.454,1.73
6.97,148.207,1.764
7.0,144.487,1.443
7.03,140.276,1.443
7.06,136.52,1.821
7.1,135.046,2.291
7.13,134.52,2.085
7.16,132.098,1.695
7.19,128.729,1.546
7.23,125.255,1.409
7.26,121.429,1.134
7.29,116.972,0.859
7.32,112.621,0.905
7.36,109.111,1.02
7.39,105.637,0.951
7.42,102.057,0.768
7.46,97.986,0.653
7.49,93.529,0.561
7.52,89.142,0.493
7.55,84.86,0.493
7.59,81.175,0.699
7.62,78.578,0.802
7.65,76.227,0.699
7.68,73.454,0.561
7.72,69.98,0.389
7.75,66.084,0.218
7.78,61.978,0.103
7.81,57.732,0.115
7.85,54.047,0.16
7.88,50.818,0.16
7.91,47.729,0.172
7.94,44.431,0.046
7.98,40.57,-0.092
8.01,36.534,-0.126
8.04,32.709,-0.183
8.07,28.954,-0.241
8.11,25.304,-0.252
8.14,21.935,-0.286
8.17,18.565,-0.321
8.2,15.302,-0.424
8.24,11.652,-0.458
8.27,7.967,-0.447
8.3,4.211,-0.493
8.33,0.316,-0.561
8.37,-3.65,-0.573
8.4,-7.405,-0.55
8.43,-11.16,-0.504
8.46,-14.6,-0.504
8.5,-17.793,-0.71
8.53,-21.794,-0.825
8.56,-25.9,-0.894
8.59,-29.971,-0.962
8.63,-34.007,-1.111
8.66,-38.113,-1.031
8.69,-41.096,-0.745
8.72,-43.272,-0.733
8.76,-45.624,-0.951
8.79,-48.502,-1.168
8.82,-51.941,-1.283
8.85,-55.696,-1.443
8.89,-59.627,-1.546
8.92,-63.628,-1.558
8.95,-67.313,-1.569
8.99,-71.103,-1.604
9.02,-74.753,-1.615
9.05,-78.017,-1.741
9.08,-81.456,-1.81
9.12,-85.071,-1.879
9.15,-89.001,-2.039
9.18,-92.967,-2.177
9.21,-97.003,-2.154
9.25,-100.618,-2.108
9.28,-103.777,-2.142
9.31,-106.689,-2.108
9.34,-109.567,-2.096
9.38,-112.621,-2.268
9.41,-115.955,-2.497
9.44,-119.815,-2.612
9.47,-123.956,-2.715
9.51,-127.782,-2.726
9.54,-131.291,-2.566
9.57,-133.923,-2.474
9.6,-136.064,-2.681
9.64,-139.433,-2.772
9.67,-142.908,-2.944
9.7,-146.698,-3.093
9.73,-150.98,-3.139
9.77,-154.77,-3.059
9.8,-156.876,-2.772
9.83,-158.42,-2.635
9.86,-160.631,-3.162
9.9,-163.86,-3.528
9.93,-167.615,-3.345
9.96,-171.019,-3.265
9.99,-174.178,-3.528
10.03,-177.512,-3.517
10.06,-179.758,-3.356
10.09,-181.267,-3.597
10.12,-183.794,-3.757
10.16,-187.057,-3.746
10.19,-190.742,-3.952
10.22,-194.884,-4.181
10.25,-198.709,-4.09
10.29,-201.622,-3.815
10.32,-203.412,-3.757
10.35,-204.851,-3.78
10.38,-206.36,-3.712
10.42,-208.044,-3.746
10.45,-210.01,-3.987
10.48,-212.572,-4.17
10.52,-215.239,-4.147
10.55,-217.345,-4.101
10.58,-218.468,-4.216
10.61,-219.38,-4.41
10.65,-221.275,-4.456
10.68,-223.872,-4.548
10.71,-226.54,-4.731
10.74,-229.453,-4.869
10.78,-232.365,-4.72
10.81,-234.682,-4.72
10.84,-237.279,-4.594
10.87,-238.577,-4.387
10.91,-239.455,-4.387
10.94,-241.104,-4.536
10.97,-242.999,-4.685
11.0,-245.0,-4.823
11.04,-246.86,-4.972
11.07,-248.65,-5.247
11.1,-250.826,-5.327
11.13,-252.37,-5.315
11.17,-254.335,-5.338
11.2,-256.406,-5.396
11.23,-257.774,-5.613
11.26,-259.634,-5.67
11.3,-261.214,-5.751
11.33,-262.337,-6.117
11.36,-263.53,-6.243
11.39,-264.969,-6.163
11.43,-267.285,-6.083
11.46,-269.286,-6.197
11.49,-270.619,-6.358
11.52,-271.497,-6.472
11.56,-272.339,-6.828
11.59,-274.971,-6.931
11.62,-277.428,-6.553
11.65,-277.919,-6.553
11.69,-278.13,-6.747
11.72,-279.112,-6.747
11.75,-281.042,-6.358
11.78,-281.569,-6.839
11.82,-283.675,-7.377
11.85,-285.991,-6.816
11.88,-286.447,-6.873
11.92,-287.149,-7.332
11.95,-288.658,-7.068
11.98,-289.185,-6.919
12.01,-290.027,-7.309
12.05,-291.571,-7.366
12.08,-293.115,-7.274
12.11,-294.379,-7.217
12.14,-295.326,-7.171
12.18,-295.818,-7.091
12.21,-295.677,-7.263
12.24,-296.344,-6.976
12.27,-296.59,-6.77
12.31,-297.221,-7.148
12.34,-298.801,-6.839
12.37,-298.836,-6.644
12.4,-298.871,-7.068
12.44,-300.169,-6.85
12.47,-299.573,-6.701
12.5,-297.993,-6.988
12.53,-298.73,-7.148
12.57,-300.029,-6.816
12.6,-299.643,-7.274
12.63,-300.485,-7.297
12.66,-300.591,-6.747
12.7,-300.275,-6.782
12.73,-299.327,-6.77
12.76,-297.923,-6.667
12.79,-297.783,-6.495
12.83,-298.169,-6.633
12.86,-297.923,-6.621
12.89,-296.063,-6.541
12.92,-294.098,-6.518
12.96,-293.221,-6.369
12.99,-292.554,-6.06
13.02,-290.974,-6.094
13.05,-290.518,-6.209
13.09,-290.237,-6.266
13.12,-289.886,-6.266
13.15,-288.728,-6.175
13.18,-285.956,-6.175
13.22,-284.061,-5.991
13.25,-282.587,-5.67
13.28,-280.411,-5.831
13.31,-279.498,-6.014
13.35,-278.586,-6.014
13.38,-277.147,-6.175
13.41,-276.34,-6.094
13.45,-274.901,-5.785
13.48,-272.935,-5.556
13.51,-271.075,-5.407
13.54,-270.093,-5.189
13.58,-268.584,-5.144
13.61,-266.548,-5.315
13.64,-264.758,-5.361
13.67,-264.618,-5.121
13.71,-263.705,-4.685
13.74,-261.073,-4.479
13.77,-259.073,-4.239
13.8,-256.3,-4.17
13.84,-253.703,-4.445
13.87,-252.44,-4.365
13.9,-251.738,-4.193
13.93,-251.247,-4.342
13.97,-250.439,-4.021
14.0,-247.807,-3.368
14.03,-243.736,-3.414
14.06,-241.595,-3.78
14.1,-240.157,-3.689
14.13,-237.91,-3.631
14.16,-236.472,-3.654
14.19,-234.471,-3.689
14.23,-232.576,-3.631
14.26,-230.611,-3.414
14.29,-227.838,-3.402
14.32,-225.838,-3.494
14.36,-223.872,-3.368
14.39,-221.486,-3.208
14.42,-219.872,-3.265
14.45,-218.187,-3.517
14.49,-216.783,-3.265
14.52,-214.326,-2.818
14.55,-210.992,-3.001
14.58,-208.817,-3.059
14.62,-206.956,-2.887
14.65,-205.237,-2.933
14.68,-203.271,-2.956
14.71,-201.587,-2.704
14.75,-198.885,-2.348
14.78,-195.129,-2.222
14.81,-191.339,-2.085
14.84,-187.549,-2.257
14.88,-185.197,-2.394
14.91,-183.267,-2.6
14.94,-181.793,-2.589
14.98,-179.407,-2.348
15.01,-176.599,-2.062
15.04,-172.844,-1.947
15.07,-169.264,-1.936
15.11,-165.895,-1.65
15.14,-162.28,-1.867
15.17,-160.245,-2.073
15.2,-158.244,-1.89
15.24,-155.612,-1.627
15.27,-152.489,-1.363
15.3,-148.663,-1.203
15.33,-144.382,-1.237
15.37,-140.486,-1.226
15.4,-138.065,-1.489
15.43,-136.169,-1.535
15.46,-133.888,-1.375
15.5,-131.221,-1.191
15.53,-128.098,-0.997
15.56,-124.588,-0.962
15.59,-120.587,-0.733
15.63,-115.639,-0.573
15.66,-111.287,-0.71
15.69,-108.023,-0.905
15.72,-105.426,-0.79
15.76,-102.162,-0.63
15.79,-98.512,-0.481
15.82,-94.301,-0.183
15.85,-89.668,-0.057
15.89,-85.422,-0.069
15.92,-81.561,-0.252
15.95,-78.543,-0.389
15.98,-75.946,-0.401
16.02,-73.665,-0.263
16.05,-70.682,0.023
16.08,-66.435,0.309
16.11,-61.908,0.493
16.15,-57.03,0.55
16.18,-52.502,0.493
16.21,-48.361,0.538
16.24,-44.255,0.561
16.28,-40.57,0.561
16.31,-36.885,0.561
16.34,-33.411,0.55
16.38,-30.147,0.538
16.41,-27.269,0.596
16.44,-24.391,0.687
16.47,-21.478,0.745
16.51,-18.636,0.779
16.54,-15.793,0.871
16.57,-12.634,0.985
16.6,-8.984,1.18
16.64,-4.562,1.306
16.67,-0.211,1.226
16.7,3.72,1.111
16.73,7.054,1.031
16.77,10.248,0.962
16.8,13.055,1.031
16.83,16.249,1.306
16.86,20.671,1.489
16.9,24.918,1.432
16.93,28.883,1.466
16.96,32.849,1.569
16.99,36.815,1.535
17.03,40.219,1.512
17.06,43.518,1.546
17.09,46.817,1.65
17.12,50.362,1.741
17.16,53.801,1.753
17.19,57.17,1.764
17.22,60.609,1.799
17.25,64.119,1.89
17.29,67.558,1.902
17.32,70.752,1.947
17.35,74.297,2.051
17.38,77.946,2.188
17.42,81.807,2.211
17.45,85.492,2.188
17.48,89.107,2.383
17.51,92.932,2.314
17.55,96.336,2.257
17.58,99.6,2.383
17.61,102.969,2.474
17.64,106.479,2.509
17.68,109.708,2.52
17.71,112.831,2.532
17.74,115.744,2.726
17.77,119.604,2.864
17.81,123.36,2.852
17.84,126.518,2.956
17.87,129.572,2.91
17.91,132.344,2.978
17.94,135.713,3.104
17.97,139.082,3.173
18.0,142.346,3.322
18.04,146.382,3.597
18.07,151.12,3.815
18.1,155.191,3.391
18.13,157.121,2.967
18.17,159.192,3.253
18.2,161.754,3.391
18.23,164.491,3.391
18.26,167.439,3.299
18.3,170.036,3.597
18.33,173.546,3.746
18.36,176.915,3.574
18.39,178.88,3.563
18.43,180.951,3.528
18.46,182.846,3.494
18.49,184.952,3.918
18.52,188.742,4.433
18.56,193.445,4.594
18.59,198.077,4.571
18.62,202.254,4.387
18.65,204.921,4.124
18.69,206.711,3.872
18.72,207.518,3.872
18.75,208.922,4.09
18.78,211.203,4.261
18.82,213.976,4.376
18.85,216.713,4.399
18.88,219.24,4.445
18.91,220.749,4.342
18.95,221.767,4.17
18.98,223.135,4.055
19.01,224.504,4.33
19.04,227.066,4.605
19.08,229.663,4.651
19.11,231.488,4.846
19.14,233.839,5.029
19.17,236.366,4.697
19.21,237.454,4.399
19.24,238.367,4.674
19.27,240.297,4.892
19.3,241.911,5.086
19.34,244.649,5.281
19.37,247.211,5.04
19.4,249.246,5.132
19.44,252.054,5.166
19.47,254.16,5.075
19.5,255.318,4.697
19.53,255.844,4.788
19.57,257.915,5.132
19.6,260.477,5.086
19.63,261.951,5.075
19.66,263.67,5.201
19.7,264.899,5.178
19.73,265.425,5.224
19.76,266.864,5.258
19.79,267.11,5.739
19.83,269.286,6.163
19.86,272.269,5.957
19.89,273.427,6.232
19.92,275.462,6.553
19.96,277.603,6.243
19.99,278.2,5.968
20.02,278.656,6.22
20.05,279.955,6.163
20.09,280.832,6.152
20.12,282.201,6.472
20.15,283.885,6.701
20.18,285.324,6.839
20.22,286.833,6.805
20.25,288.026,6.484
20.28,288.202,6.77
20.31,289.746,6.885
20.35,290.764,6.736
20.38,291.747,7.148
20.41,293.431,7.32
20.44,295.186,7.022
20.48,295.923,6.805
20.51,295.853,7.091
20.54,296.66,6.873
20.57,296.73,6.427
20.61,296.941,6.484
20.64,298.239,6.346
20.67,298.625,6.232
20.7,298.064,6.644
20.74,298.485,6.908
20.77,299.783,6.69
20.8,300.134,6.358
20.83,299.924,6.369
20.87,299.573,6.61
20.9,300.555,7.228
20.93,302.029,6.931
20.97,302.275,6.026
21.0,301.152,6.209
21.03,300.906,6.197
21.06,300.415,5.854
21.1,298.59,5.728
21.13,297.643,6.026
21.16,298.344,6.163
21.19,299.046,5.9
21.23,297.923,5.762
21.26,296.379,5.705
21.29,295.151,5.292
21.32,292.87,5.132
21.36,291.641,5.155
21.39,291.08,5.132
21.42,290.483,5.361
21.45,289.536,5.487
21.49,288.202,5.487
21.52,287.605,5.109
21.55,285.535,4.892
21.58,283.289,4.857
21.62,280.762,4.823
21.65,278.761,5.052
21.68,278.165,5.281
21.71,278.13,5.201
21.75,278.059,4.914
21.78,276.375,4.72
21.81,274.059,4.548
21.84,271.251,4.342
21.88,268.549,4.639
21.91,268.268,4.708
21.94,268.163,4.433
21.97,267.145,4.319
22.01,265.46,4.261
22.04,263.284,4.055
22.07,260.617,3.964
22.1,258.266,4.021
22.14,256.441,4.261
22.17,255.353,4.25
22.2,253.458,4.261
22.23,252.756,4.582
22.27,252.58,4.273
22.3,250.299,3.735
22.33,246.333,3.643
22.37,243.877,3.849
22.4,242.578,3.861
22.43,240.613,3.975
22.46,239.139,3.975
22.5,238.016,3.735
22.53,235.945,3.723
22.56,233.769,3.723
22.59,231.137,3.127
22.63,227.242,3.494
22.66,226.154,3.987
22.69,225.557,3.643
22.72,223.521,3.551
22.76,221.907,3.666
22.79,220.047,3.574
22.82,218.222,3.127
22.85,215.309,2.784
22.89,211.694,2.841
22.92,208.395,2.887
22.95,205.588,3.036
22.98,204.044,3.219
23.02,203.026,3.185
23.05,201.166,3.116
23.08,198.814,2.818
23.11,195.305,2.646
23.15,191.866,2.681
23.18,188.847,2.646
23.21,186.777,2.6
23.24,185.092,2.669
23.28,182.916,2.692
23.31,180.109,2.257
23.34,176.178,2.005
23.37,172.353,2.119
23.41,168.843,2.051
23.44,165.334,1.902
23.47,162.0,2.073
23.5,159.508,2.394
23.54,157.928,2.291
23.57,155.261,1.799
23.6,151.155,1.615
23.63,147.61,1.879
23.67,145.259,1.913
23.7,143.118,1.879
23.73,140.802,1.97
23.76,138.345,1.73
23.8,134.801,1.489
23.83,130.905,1.272
23.86,126.939,1.226
23.9,123.114,1.398
23.93,120.096,1.272
23.96,116.446,0.974
23.99,112.656,1.02
24.03,109.462,1.134
24.06,106.198,0.997
24.09,102.303,0.802
24.12,98.161,0.71
24.16,93.845,0.573
24.19,89.598,0.458
24.22,85.281,0.481
24.25,81.491,0.642
24.29,78.473,0.733
24.32,75.806,0.733
24.35,72.998,0.63
24.38,69.699,0.493
24.42,66.049,0.321
24.45,61.908,0.241
24.48,58.153,0.16
24.51,54.468,0.126
24.55,50.993,0.183
24.58,47.694,0.195
24.61,44.395,0.069
24.64,40.816,-0.046
24.68,36.99,-0.08
24.71,33.165,-0.16
24.74,29.269,-0.218
24.77,25.549,-0.252
24.81,21.935,-0.286
24.84,18.565,-0.321
24.87,15.056,-0.435
24.9,11.266,-0.504
24.94,7.37,-0.504
24.97,3.369,-0.527
25.0,-0.562,-0.55
25.03,-4.106,-0.47
25.07,-7.335,-0.344
25.1,-10.143,-0.321
25.13,-12.74,-0.653
25.16,-16.846,-0.951
25.2,-21.478,-0.939
25.23,-25.584,-0.928
25.26,-29.41,-0.997
25.29,-33.305,-1.042
25.33,-37.061,-1.054
25.36,-40.219,-0.905
25.39,-42.851,-0.859
25.43,-45.659,-1.02
25.46,-48.817,-1.203
25.49,-52.257,-1.294
25.52,-55.872,-1.409
25.56,-59.627,-1.558
25.59,-63.557,-1.673
25.62,-67.453,-1.638
25.65,-71.138,-1.627
25.69,-74.683,-1.638
25.72,-77.911,-1.776
25.75,-81.807,-1.833
25.78,-85.352,-1.833
25.82,-88.896,-2.039
25.85,-92.897,-2.085
25.88,-96.477,-2.085
25.91,-99.986,-2.142
25.95,-103.25,-2.188
25.98,-106.444,-2.211
26.01,-109.637,-2.165
26.04,-112.691,-2.303
26.08,-116.2,-2.497
26.11,-119.955,-2.52
26.14,-123.781,-2.704
26.17,-127.957,-2.658
26.21,-130.94,-2.577
26.24,-133.958,-2.52
26.27,-136.555,-2.497
26.3,-139.188,-2.818
26.34,-143.048,-2.933
26.37,-146.909,-3.059
26.4,-150.98,-3.242
26.43,-154.419,-3.093
26.47,-156.7,-2.795
26.5,-158.279,-2.715
26.53,-160.666,-3.104
26.56,-164.0,-3.402
26.6,-167.474,-3.276
26.63,-170.317,-3.345
26.66,-173.405,-3.54
26.69,-176.353,-3.643
26.73,-179.477,-3.597
26.76,-182.285,-3.528
26.79,-184.846,-3.563
26.83,-187.128,-3.689
26.86,-190.356,-3.883
26.89,-194.077,-4.09
26.92,-198.358,-4.078
26.96,-201.587,-3.826
26.99,-203.201,-3.815
27.02,-204.886,-3.746
27.05,-206.114,-3.712
27.09,-207.869,-3.792
27.12,-209.94,-3.929
27.15,-212.151,-4.239
27.18,-215.134,-4.204
27.22,-217.52,-4.101
27.25,-219.731,-4.032
27.28,-220.924,-4.021
27.31,-222.574,-3.941
27.35,-223.697,-4.124
27.38,-225.768,-4.502
27.41,-228.505,-4.628
27.44,-231.137,-4.857
27.48,-234.225,-4.926
27.51,-237.56,-4.685
27.54,-239.7,-4.387
27.57,-240.508,-4.422
27.61,-241.841,-4.433
27.64,-242.508,-4.548
27.67,-244.473,-4.639
27.7,-246.79,-4.708
27.74,-248.579,-5.086
27.77,-250.545,-5.304
27.8,-251.949,-5.292
27.83,-253.423,-5.27
27.87,-255.598,-5.602
27.9,-257.634,-5.934
27.93,-259.634,-6.049
27.96,-261.389,-5.923
28.0,-262.828,-5.98
28.03,-264.127,-6.232
28.06,-266.302,-6.049
28.09,-267.987,-5.751
28.13,-268.584,-6.129
28.16,-270.303,-6.381
28.19,-272.865,-6.049
28.22,-273.637,-6.266
28.26,-275.076,-6.724
28.29,-276.761,-6.472
28.32,-277.147,-6.427
28.36,-278.024,-6.713
28.39,-279.533,-6.747
28.42,-280.727,-6.621
28.45,-281.744,-7.148
28.49,-283.675,-7.343
28.52,-285.008,-7.458
28.55,-286.658,-7.251
28.58,-287.325,-7.206
28.62,-288.693,-7.183
28.65,-289.816,-6.931
28.68,-290.869,-7.057
28.71,-292.133,-7.194
28.75,-293.185,-7.435
28.78,-294.484,-7.435
28.81,-295.256,-7.194
28.84,-295.186,-7.354
28.88,-295.642,-7.366
28.91,-296.414,-6.885
28.94,-296.66,-6.736
28.97,-297.327,-7.045
29.01,-298.239,-7.034
29.04,-298.695,-6.931
29.07,-298.906,-7.011
29.1,-299.327,-7.217
29.14,-299.994,-6.908
29.17,-299.257,-6.793
29.2,-299.117,-7.068
29.23,-299.643,-7.057
29.27,-300.345,-7.08
29.3,-300.906,-6.885
29.33,-300.064,-6.896
29.36,-299.783,-6.954
29.4,-299.643,-6.644
29.43,-298.73,-6.415
29.46,-297.607,-6.553
29.49,-297.853,-6.759
29.53,-298.801,-6.404
29.56,-298.239,-6.049
29.59,-296.519,-5.865
29.62,-293.466,-5.831
29.66,-291.115,-5.819
29.69,-290.097,-5.762
29.72,-289.816,-6.003
29.75,-289.851,-6.312
29.79,-289.711,-6.266
29.82,-287.991,-6.209
29.85,-285.78,-6.266
29.89,-284.166,-6.037
29.92,-283.183,-5.67
29.95,-281.674,-5.51
29.98,-280.13,-5.648
30.02,-279.182,-5.613
30.05,-278.165,-5.464
30.08,-277.007,-5.384
30.11,-274.901,-5.292
30.15,-271.918,-5.235
30.18,-270.128,-5.155
30.21,-269.04,-5.121
30.24,-268.794,-5.155
30.28,-267.917,-5.006
30.31,-266.057,-4.995
30.34,-265.215,-4.697
30.37,-262.758,-4.399
30.41,-259.459,-4.365
30.44,-257.564,-4.181
30.47,-255.984,-4.113
30.5,-255.353,-4.101
30.54,-253.773,-3.941
30.57,-251.913,-3.987
30.6,-251.282,-3.975
30.63,-249.738,-3.803
30.67,-247.281,-3.494
30.7,-243.771,-3.551
30.73,-242.017,-3.746
30.76,-240.262,-3.815
30.8,-238.577,-3.677
30.83,-236.963,-3.563
30.86,-235.384,-3.528
30.89,-233.032,-3.482
30.93,-230.54,-3.379
30.96,-228.119,-3.322
30.99,-225.943,-3.391
31.02,-224.083,-3.448
31.06,-222.714,-3.001
31.09,-220.047,-3.104
31.12,-218.608,-3.402
31.15,-216.573,-3.036
31.19,-213.554,-2.784
31.22,-210.887,-2.784
31.25,-208.887,-2.784
31.29,-206.606,-2.795
31.32,-204.675,-2.887
31.35,-203.271,-2.761
31.38,-201.236,-2.658
31.42,-198.112,-2.497
31.45,-194.989,-2.28
31.48,-191.971,-2.096
31.51,-188.286,-2.222
31.55,-185.478,-2.291
31.58,-183.302,-2.497
31.61,-181.688,-2.555
31.64,-179.477,-2.28
31.68,-176.775,-1.982
31.71,-173.195,-1.821
31.74,-169.229,-1.821
31.77,-165.72,-1.638
31.81,-162.561,-1.684
31.84,-160.069,-2.016
31.87,-158.244,-1.902
31.9,-155.823,-1.489
31.94,-152.208,-1.409
31.97,-148.207,-1.375
32.0,-144.487,-1.306
32.03,-141.188,-1.226
32.07,-138.521,-1.466
32.1,-136.31,-1.604
32.13,-134.274,-1.294
32.16,-131.081,-1.123
32.2,-127.606,-1.031
32.23,-124.377,-0.905
32.26,-120.552,-0.699
32.29,-115.884,-0.504
32.33,-111.322,-0.619
32.36,-107.812,-0.768
32.39,-105.005,-0.722
32.42,-102.127,-0.561
32.46,-98.477,-0.447
32.49,-94.652,-0.172
32.52,-89.844,0.046
32.55,-85.141,-0.115
32.59,-81.526,-0.195
32.62,-78.297,-0.206
32.65,-75.63,-0.263
32.68,-73.138,-0.16
32.72,-69.945,0.103
32.75,-65.874,0.367
32.78,-61.241,0.458
32.82,-56.714,0.435
32.85,-52.643,0.378
32.88,-49.063,0.401
32.91,-45.413,0.435
32.95,-41.904,0.493
32.98,-38.184,0.63
33.01,-34.393,0.722
33.04,-30.708,0.687
33.08,-27.339,0.664
33.11,-24.286,0.71
33.14,-21.443,0.745
33.17,-18.53,0.836
33.21,-15.512,0.916
33.24,-12.389,0.997
33.27,-8.633,1.157
33.3,-4.282,1.249
33.34,-0.14,1.214
33.37,3.79,1.134
33.4,7.265,1.088
33.43,10.564,0.997
33.47,13.652,1.111
33.5,17.126,1.398
33.53,21.654,1.535
33.56,25.795,1.398
33.6,29.55,1.34
33.63,32.99,1.432
33.66,36.534,1.455
33.69,39.693,1.455
33.73,42.781,1.535
33.76,46.115,1.673
33.79,49.765,1.764
33.82,53.275,1.776
33.86,56.644,1.81
33.89,60.153,1.879
33.92,63.663,1.959
33.95,67.242,2.039
33.99,70.892,2.051
34.02,74.718,2.131
34.05,78.648,2.199
34.08,82.298,2.154
34.12,85.562,2.131
34.15,88.931,2.245
34.18,92.476,2.429
34.21,96.371,2.44
34.25,99.635,2.486
34.28,102.618,2.589
34.31,106.023,2.509
34.35,109.216,2.566
34.38,112.27,2.646
34.41,115.604,2.715
34.44,119.394,2.852
34.48,123.289,2.91
34.51,126.834,2.887
34.54,129.817,2.921
34.57,132.555,2.967
34.61,135.362,3.196
34.64,138.977,3.356
34.67,142.697,3.391
34.7,146.663,3.735
34.74,151.611,3.929
34.77,155.858,3.471
34.8,158.069,2.978
34.83,159.789,3.208
34.87,162.07,3.391
34.9,164.807,3.379
34.93,167.299,3.414
34.96,170.422,3.62
35.0,173.581,3.838
35.03,177.02,3.849
35.06,179.512,3.838
35.09,182.144,3.815
35.13,184.811,3.666
35.16,187.549,3.861
35.19,191.444,4.055
35.22,194.814,4.147
35.26,197.691,4.273
35.29,200.78,4.525
35.32,204.921,4.433
35.35,208.395,4.181
35.39,210.291,4.158
35.42,211.94,4.296
35.45,213.8,4.284
35.48,215.344,4.422
35.52,218.152,4.456
35.55,220.573,4.456
35.58,222.925,4.708
35.61,226.399,4.788
35.65,229.242,4.823
35.68,231.734,4.96
35.71,234.12,4.914
35.75,236.366,4.754
35.78,237.946,4.731
35.81,239.735,5.029
35.84,241.982,4.88
35.88,242.438,4.628
35.91,243.245,4.708
35.94,244.649,4.903
35.97,246.684,5.04
36.01,248.685,4.903
36.04,250.124,4.788
36.07,251.212,4.846
36.1,252.756,4.983
36.14,253.984,4.983
36.17,255.212,5.235
36.2,258.16,5.315
36.23,260.757,5.235
36.27,262.723,5.201
36.3,263.951,5.155
36.33,265.179,5.247
36.36,266.373,5.258
36.4,266.478,5.361
36.43,268.022,5.636
36.46,270.724,5.693
36.49,272.479,6.129
36.53,274.199,6.312
36.56,275.427,6.106
36.59,276.901,6.381
36.62,279.147,6.484
36.66,280.06,6.071
36.69,280.2,6.186
36.72,281.288,6.598
36.75,282.938,6.77
36.79,284.763,6.747
36.82,286.517,6.679
36.85,287.43,6.816
36.88,288.237,6.919
36.92,289.43,6.598
36.95,290.027,6.507
36.98,290.799,6.942
37.01,292.343,7.068
37.05,293.958,7.125
37.08,296.028,6.965
37.11,296.906,6.908
37.14,297.151,7.102
37.18,297.958,6.828
37.21,298.099,6.553
37.24,298.099,6.633
37.28,298.941,6.507
37.31,299.783,6.449
37.34,300.204,6.518
37.37,300.134,6.575
37.41,299.818,6.427
37.44,298.836,6.644
37.47,299.503,6.644
37.5,300.099,6.312
37.54,300.169,6.61
37.57,301.468,6.69
37.6,301.784,6.404
37.63,300.941,6.449
37.67,300.345,6.301
37.7,300.415,6.255
37.73,296.59,4.972
37.76,281.779,1.26
37.8,261.88,-0.183
37.83,250.79,2.36
37.86,251.387,5.166
37.89,257.458,6.197
37.93,264.267,6.598
37.96,270.338,7.297
37.99,275.322,7.732
38.02,278.972,7.675
38.06,282.552,7.927
38.09,286.482,8.305
38.12,290.062,8.156
38.15,291.992,7.652
38.19,291.817,7.16
38.22,290.904,6.278
38.25,288.553,5.384
38.28,285.5,5.075
38.32,283.429,5.063
38.35,281.393,4.972
38.38,279.709,4.914
38.41,278.902,4.823
38.45,277.182,4.766
38.48,274.69,4.697
38.51,272.971,4.456
38.54,271.251,4.433
38.58,269.672,4.697
38.61,268.513,4.582
38.64,266.759,4.41
38.67,265.601,4.468
38.71,264.793,4.284
38.74,262.758,3.975
38.77,260.161,3.987
38.81,258.231,4.25
38.84,256.792,4.376
38.87,255.528,4.273
38.9,254.686,4.284
38.94,254.054,4.33
38.97,252.861,4.181
39.0,250.545,3.838
39.03,247.456,3.608
39.07,244.719,3.861
39.1,242.894,3.987
39.13,240.823,3.826
39.16,238.753,3.941
39.2,237.77,3.895
39.23,235.559,3.7
39.26,232.857,3.368
39.29,229.733,3.23
39.33,226.82,3.551
39.36,225.381,3.551
39.39,223.416,3.46
39.42,221.626,3.448
39.46,219.38,3.356
39.49,217.415,3.047
39.52,213.73,2.83
39.55,210.185,3.059
39.59,208.044,3.185
39.62,206.606,3.322
39.65,205.377,3.322
39.68,203.552,3.356
39.72,202.675,3.448
39.75,201.025,3.127
39.78,197.762,2.738
39.81,193.655,2.268
39.85,189.584,2.669
39.88,187.619,2.852
39.91,185.759,2.509
39.94,183.548,2.497
39.98,180.705,2.36
40.01,176.915,2.188
40.04,173.405,2.039
40.07,169.931,2.005
40.11,166.772,2.062
40.14,164.0,2.291
40.17,162.245,2.348
40.21,160.35,2.119
40.24,157.156,1.913
40.27,153.085,1.684
40.3,148.663,1.569
40.34,144.733,1.501
40.37,140.451,1.466
40.4,136.485,1.615
40.43,133.853,1.73
40.47,132.098,1.787
40.5,130.238,1.73
40.53,127.957,1.65
40.56,125.185,1.375
40.6,121.114,1.02
40.63,116.411,0.928
40.66,112.55,0.997
40.69,109.462,1.1
40.73,106.514,0.985
40.76,103.004,0.825
40.79,98.969,0.768
40.82,94.862,0.584
40.86,90.195,0.447
40.89,85.703,0.596
40.92,82.263,0.722
40.95,79.596,0.745
40.99,76.964,0.699
41.02,74.156,0.596
41.05,70.892,0.378
41.08,66.821,0.195
41.12,62.61,0.103
41.15,58.504,0.126
41.18,54.819,0.183
41.21,51.555,0.195
41.25,48.502,0.172
41.28,45.132,0.115
41.31,41.763,0.023
41.34,38.113,-0.137
41.38,34.042,-0.286
41.41,30.006,-0.298
41.44,26.146,-0.321
41.47,22.391,-0.389
41.51,18.706,-0.401
41.54,14.986,-0.481
41.57,11.055,-0.561
41.6,7.195,-0.47
41.64,3.474,-0.447
41.67,-0.035,-0.458
41.7,-3.439,-0.424
41.74,-6.528,-0.389
41.77,-9.897,-0.447
41.8,-13.091,-0.47
41.83,-15.828,-0.71
41.87,-19.899,-0.836
41.9,-24.005,-0.905
41.93,-28.146,-0.985
41.96,-32.112,-1.042
42.0,-35.727,-0.974
42.03,-39.342,-0.985
42.06,-42.921,-1.134
42.09,-46.712,-1.237
42.13,-50.467,-1.249
42.16,-54.222,-1.42
42.19,-57.802,-1.352
42.22,-60.364,-1.123
42.26,-62.996,-1.34
42.29,-66.365,-1.535
42.32,-69.804,-1.615
42.35,-73.56,-1.764
42.39,-77.841,-1.799
42.42,-81.561,-1.707
42.45,-84.72,-1.753
42.48,-88.159,-1.879
42.52,-91.879,-1.982
42.55,-95.599,-2.096
42.58,-99.39,-2.108
42.61,-102.864,-2.073
42.65,-105.812,-2.062
42.68,-108.514,-2.199
42.71,-112.024,-2.325
42.74,-115.814,-2.486
42.78,-119.85,-2.577
42.81,-123.746,-2.623
42.84,-127.536,-2.635
42.87,-130.835,-2.532
42.91,-133.853,-2.463
42.94,-136.205,-2.543
42.97,-139.258,-2.704
43.0,-142.697,-2.83
43.04,-146.803,-3.196
43.07,-151.225,-3.093
43.1,-154.594,-2.864
43.13,-156.279,-2.577
43.17,-157.156,-2.555
43.2,-158.946,-2.944
43.23,-162.245,-3.185
43.27,-165.685,-3.311
43.3,-169.054,-3.597
43.33,-173.125,-3.78
43.36,-176.845,-3.723
43.4,-180.144,-3.597
43.43,-183.267,-3.391
43.46,-185.057,-3.391
43.49,-187.268,-3.586
43.53,-190.041,-3.803
43.56,-193.655,-4.135
43.59,-198.323,-4.067
43.62,-201.306,-3.895
43.66,-203.447,-3.849
43.69,-205.342,-3.654
43.72,-206.606,-3.551
43.75,-207.834,-3.677
43.79,-208.887,-4.078
43.82,-211.028,-4.502
43.85,-214.397,-4.559
43.88,-217.696,-4.399
43.92,-220.012,-4.284
43.95,-221.275,-4.25
43.98,-222.679,-4.135
44.01,-224.258,-4.181
44.05,-226.189,-4.513
44.08,-228.645,-4.766
44.11,-231.769,-4.811
44.14,-234.717,-4.777
44.18,-237.068,-4.72
44.21,-238.823,-4.639
44.24,-240.508,-4.468
44.27,-242.227,-4.525
44.31,-244.263,-4.674
44.34,-246.228,-4.571
44.37,-246.93,-4.88
44.4,-249.597,-5.075
44.44,-251.984,-4.892
44.47,-252.896,-5.052
44.5,-254.44,-5.132
44.53,-255.669,-5.247
44.57,-257.108,-5.487
44.6,-259.248,-5.476
44.63,-261.88,-5.327
44.67,-263.635,-5.418
44.7,-265.039,-5.487
44.73,-265.495,-5.418
44.76,-265.565,-5.682
44.8,-266.338,-6.175
44.83,-269.04,-6.449
44.86,-272.9,-6.175
44.89,-274.339,-6.404
44.93,-275.848,-6.644
44.96,-276.62,-6.392
44.99,-276.024,-6.553
45.02,-276.901,-6.999
45.06,-279.007,-6.919
45.09,-279.955,-7.08
45.12,-281.499,-7.515
45.15,-283.815,-7.458
45.19,-286.166,-7.102
45.22,-287.044,-7.16
45.25,-288.202,-7.354
45.28,-289.325,-6.988
45.32,-289.5,-7.114
45.35,-290.483,-7.354
45.38,-291.711,-7.343
45.41,-293.642,-7.102
45.45,-294.765,-6.896
45.48,-295.502,-6.988
45.51,-296.239,-6.816
45.54,-295.993,-6.873
45.58,-295.502,-7.022
45.61,-296.414,-7.102
45.64,-298.204,-6.805
45.67,-298.766,-6.736
45.71,-298.38,-7.171
45.74,-298.66,-7.309
45.77,-299.924,-7.286
45.8,-300.52,-7.171
45.84,-300.134,-6.885
45.87,-298.625,-6.667
45.9,-298.204,-7.263
45.93,-299.432,-7.515
45.97,-300.31,-7.08
46.0,-299.678,-6.942
46.03,-299.503,-7.011
46.06,-299.608,-6.564
46.1,-298.695,-6.186
46.13,-297.537,-6.381
46.16,-297.432,-6.61
46.2,-296.835,-6.541
46.23,-296.484,-6.415
46.26,-295.607,-6.197
46.29,-293.677,-6.129
46.33,-291.22,-6.094
46.36,-289.922,-6.14
46.39,-290.974,-5.957
46.42,-291.01,-6.026
46.46,-290.623,-6.094
46.49,-289.5,-5.728
46.52,-286.938,-5.533
46.55,-284.622,-5.487
46.59,-283.324,-5.166
46.62,-281.604,-4.983
46.65,-279.288,-5.396
46.68,-277.919,-5.739
46.72,-277.498,-5.636
46.75,-276.656,-5.602
46.78,-275.462,-5.59
46.81,-273.918,-5.144
46.85,-270.865,-5.006
46.88,-268.864,-5.155
46.91,-268.338,-5.04
46.94,-267.075,-4.972
46.98,-265.39,-5.144
47.01,-264.653,-4.96
47.04,-262.758,-4.662
47.07,-260.196,-4.571
47.11,-258.617,-4.365
47.14,-257.494,-4.113
47.17,-255.914,-4.124
47.2,-254.546,-4.044
47.24,-252.966,-3.757
47.27,-251.071,-3.78
47.3,-249.141,-3.872
47.33,-247.597,-3.528
47.37,-245.386,-3.643
47.4,-243.526,-3.872
47.43,-241.28,-3.402
47.46,-237.56,-3.276
47.5,-235.84,-3.402
47.53,-233.734,-3.505
47.56,-231.664,-3.574
47.59,-229.979,-3.356
47.63,-227.171,-3.482
47.66,-225.697,-3.643
47.69,-224.715,-3.402
47.73,-222.328,-3.253
47.76,-220.854,-3.265
47.79,-218.889,-3.379
47.82,-216.537,-3.288
47.86,-213.274,-2.967
47.89,-210.641,-3.024
47.92,-209.273,-2.898
47.95,-207.097,-2.921
47.99,-205.623,-2.772
48.02,-203.271,-2.726
48.05,-201.096,-2.738
48.08,-198.709,-2.325
48.12,-195.235,-2.211
48.15,-191.55,-2.222
48.18,-188.04,-2.234
48.21,-185.303,-2.36
48.25,-183.232,-2.681
48.28,-182.32,-2.589
48.31,-180.003,-2.234
48.34,-176.283,-2.142
48.38,-173.09,-1.867
48.41,-169.475,-1.821
48.44,-165.93,-1.695
48.47,-162.315,-1.695
48.51,-160.069,-1.993
48.54,-158.209,-1.925
48.57,-155.682,-1.581
48.6,-152.489,-1.42
48.64,-148.593,-1.317
48.67,-145.364,-1.409
48.7,-142.241,-1.375
48.73,-139.433,-1.409
48.77,-136.942,-1.432
48.8,-134.239,-1.214
48.83,-131.081,-0.916
48.86,-126.834,-0.894
48.9,-123.079,-0.974
48.93,-119.008,-0.699
48.96,-114.586,-0.607
48.99,-111.041,-0.745
49.03,-108.269,-0.905
49.06,-105.566,-0.733
49.09,-102.127,-0.573
49.13,-98.161,-0.493
49.16,-93.915,-0.321
49.19,-89.458,-0.172
49.22,-85.281,-0.218
49.26,-82.018,-0.263
49.29,-78.894,-0.286
49.32,-75.911,-0.218
49.35,-72.823,-0.16
49.39,-69.664,0.069
49.42,-65.698,0.332
49.45,-61.311,0.401
49.48,-57.065,0.389
49.52,-53.064,0.298
49.55,-49.765,0.321
49.58,-46.396,0.378
49.61,-43.097,0.424
49.65,-39.587,0.573
49.68,-35.657,0.813
49.71,-31.27,0.848
49.74,-27.234,0.756
49.78,-23.865,0.768
49.81,-20.706,0.848
49.84,-17.513,0.871
49.87,-14.459,0.951
49.91,-11.125,0.974
49.94,-7.861,0.997
49.97,-4.352,1.065
50.0,-0.772,1.065
50.04,2.667,1.065
50.07,6.071,1.134
50.1,9.932,1.157
50.13,13.757,1.272
50.17,17.934,1.524
50.2,22.601,1.489
50.23,26.462,1.386
50.26,30.006,1.294
50.3,33.095,1.34
50.33,36.359,1.478
50.36,40.044,1.558
50.39,43.448,1.455
50.43,46.15,1.352
50.46,48.782,1.558
50.49,51.976,1.764
50.52,55.486,1.787
50.56,59.065,1.902
50.59,63.171,2.062
50.62,67.207,2.062
50.66,71.103,1.97
50.69,74.507,2.039
50.72,78.087,2.165
50.75,81.772,2.131
50.79,85.211,2.131
50.82,88.721,2.268
50.85,92.476,2.406
50.88,96.371,2.451
50.92,99.916,2.463
50.95,103.531,2.383
50.98,106.514,2.337
51.01,109.216,2.429
51.05,111.848,2.577
51.08,115.323,2.749
51.11,119.289,2.921
51.14,123.605,2.967
51.18,127.29,2.921
51.21,130.449,2.933
51.24,133.994,2.715
51.27,136.555,2.807
51.31,139.539,2.99
51.34,142.276,3.07
51.37,145.154,3.311
51.4,149.12,3.54
51.44,153.366,3.803
51.47,157.578,3.471
51.5,160.947,3.368
51.53,163.684,3.288
51.57,165.79,3.322
51.6,168.106,3.288
51.63,170.668,3.494
51.66,174.248,3.666
51.7,177.441,3.757
51.73,180.881,3.608
51.76,183.197,3.505
51.79,185.197,3.517
51.83,187.759,3.746
51.86,191.164,4.422
51.89,196.498,4.995
51.92,202.815,4.995
51.96,207.693,4.559
51.99,210.326,4.113
52.02,211.449,3.608
52.05,211.133,3.334
52.09,210.255,3.54
52.12,210.641,3.838
52.15,211.975,4.078
52.19,214.467,4.273
52.22,217.099,4.284
52.25,218.784,4.17
52.28,219.45,4.055
52.32,220.222,4.078
52.35,221.31,4.307
52.38,223.767,4.468
52.41,225.768,4.662
52.45,228.47,4.823
52.48,231.909,4.605
52.51,234.19,4.548
52.54,235.98,4.433
52.58,236.823,4.605
52.61,238.332,4.983
52.64,241.49,5.063
52.67,244.087,5.018
52.71,246.404,5.052
52.74,249.176,5.292
52.77,251.808,5.235
52.8,254.195,4.926
52.84,254.967,4.639
52.87,255.388,4.766
52.9,256.616,5.063
52.93,258.722,5.063
52.97,260.266,5.109
53.0,261.916,5.464
53.03,264.056,5.59
53.06,266.197,5.373
53.1,267.531,5.43
53.13,269.286,5.636
53.16,271.075,5.579
53.19,272.304,5.636
53.23,273.953,5.762
53.26,275.287,5.934
53.29,276.761,6.049
53.32,278.621,5.774
53.36,278.621,5.865
53.39,279.218,6.289
53.42,281.078,5.842
53.45,281.499,6.094
53.49,282.973,6.713
53.52,284.903,6.747
53.55,286.763,6.564
53.59,287.816,6.633
53.62,289.114,6.793
53.65,289.851,6.839
53.68,290.939,7.034
53.72,292.799,6.736
53.75,294.203,6.633
53.78,295.888,6.484
53.81,296.555,6.438
53.85,297.081,6.633
53.88,297.678,6.484
53.91,297.853,6.197
53.94,296.941,6.22
53.98,296.87,6.633
54.01,298.239,6.495
54.04,298.344,6.312
54.07,298.695,6.564
54.11,299.854,6.495
54.14,300.38,6.346
54.17,300.591,6.266
54.2,300.696,6.358
54.24,301.398,6.793
54.27,302.24,6.461
54.3,301.117,5.957
54.33,298.625,5.682
54.37,295.923,5.35
54.4,293.291,4.766
54.43,290.904,4.605
54.46,290.062,5.247
54.5,291.782,5.625
54.53,292.589,5.659
54.56,292.413,5.991
54.59,292.484,6.346
54.63,292.448,6.621
54.66,293.887,6.724
54.69,296.169,6.53
54.72,296.976,6.621
54.76,297.502,6.736
54.79,297.292,6.289
54.82,295.923,5.854
54.85,293.571,5.602
54.89,290.974,5.247
54.92,288.623,4.628
54.95,284.798,4.571
54.98,282.692,4.731
55.02,282.06,4.433
55.05,279.849,4.399
55.08,277.357,4.525
55.12,274.094,4.639
55.15,272.339,4.513
55.18,270.268,4.525
55.21,269.566,4.651
55.25,269.286,4.399
55.28,267.636,4.433
55.31,266.443,4.376
55.34,265.144,4.158
55.38,263.074,4.044
55.41,260.687,4.032
55.44,258.266,3.906
55.47,255.318,4.113
55.51,253.984,4.193
55.54,251.738,4.009
55.57,250.089,4.273
55.6,250.089,4.17
55.64,248.65,3.769
55.67,245.807,3.62
55.7,242.543,3.964
55.73,240.718,4.319
55.77,240.472,4.17
55.8,239.525,4.032
55.83,238.191,3.918
55.86,236.472,3.677
55.9,234.296,3.437
55.93,230.786,3.059
55.96,227.347,3.356
55.99,225.241,3.849
56.03,224.715,3.792
56.06,224.048,3.505
56.09,222.539,3.574
56.12,221.135,3.505
56.16,218.819,3.059
56.19,215.73,2.761
56.22,211.975,2.841
56.25,208.746,2.956
56.29,206.606,2.978
56.32,204.816,3.208
56.35,203.307,3.219
56.38,201.447,3.001
56.42,198.709,2.726
56.45,194.954,2.658
56.48,192.111,2.509
56.51,188.812,2.543
56.55,186.285,2.692
56.58,184.46,2.681
56.61,182.811,2.669
56.65,180.424,2.348
56.68,176.74,2.119
56.71,173.195,1.993
56.74,169.019,1.993
56.78,164.737,1.959
56.81,161.578,2.039
56.84,159.402,2.325
56.87,157.507,2.348
56.91,154.63,1.856
56.94,150.945,1.787
56.97,147.084,1.73
57.0,143.82,1.833
57.04,141.434,2.051
57.07,138.872,1.821
57.1,137.117,2.085
57.13,135.608,2.131
57.17,133.327,1.558
57.2,129.747,1.352
57.23,126.237,1.352
57.26,122.272,1.203
57.3,117.885,0.985
57.33,113.568,0.928
57.36,109.813,1.111
57.39,106.83,0.997
57.43,103.18,0.733
57.46,98.969,0.619
57.49,94.406,0.481
57.52,89.668,0.389
57.56,85.071,0.378
57.59,81.175,0.55
57.62,77.946,0.71
57.65,75.314,0.722
57.69,72.577,0.664
57.72,69.489,0.55
57.75,66.26,0.344
57.78,62.61,0.16
57.82,58.328,0.126
57.85,54.503,0.103
57.88,50.888,0.149
57.91,47.659,0.183
57.95,44.36,0.103
57.98,40.851,-0.034
58.01,36.99,-0.069
58.05,33.2,-0.149
58.08,29.305,-0.241
58.11,25.514,-0.298
58.14,21.864,-0.321
58.18,18.46,-0.332
58.21,14.986,-0.412
58.24,11.301,-0.504
58.27,7.475,-0.481
58.31,3.58,-0.504
58.34,-0.386,-0.584
58.37,-4.247,-0.584
58.4,-7.826,-0.435
58.44,-10.985,-0.378
58.47,-13.898,-0.642
58.5,-17.723,-0.79
58.53,-21.654,-0.848
58.57,-25.304,-0.905
58.6,-28.954,-0.962
58.63,-32.849,-1.088
58.66,-36.815,-1.203
58.7,-40.43,-1.008
58.73,-43.132,-0.882
58.76,-45.554,-1.042
58.79,-48.431,-1.18
58.83,-51.625,-1.272
58.86,-55.31,-1.478
58.89,-59.521,-1.615
58.92,-63.557,-1.673
58.96,-67.558,-1.684
58.99,-71.278,-1.695
59.02,-74.718,-1.695
59.05,-78.052,-1.787
59.09,-81.737,-1.913
59.12,-85.387,-1.902
59.15,-88.966,-2.062
59.18,-92.862,-2.165
59.22,-96.547,-2.177
59.25,-100.021,-2.211
59.28,-103.531,-2.222
59.31,-106.83,-2.154
59.35,-109.392,-2.234
59.38,-112.41,-2.348
59.41,-115.955,-2.497
59.44,-119.885,-2.589
59.48,-123.816,-2.681
59.51,-127.571,-2.738
59.54,-130.905,-2.612
59.58,-133.607,-2.6
59.61,-136.345,-2.692
59.64,-139.644,-2.807
59.67,-143.048,-3.024
59.71,-146.733,-3.15
59.74,-150.523,-3.288
59.77,-154.068,-3.276
59.8,-156.876,-2.978
59.84,-158.911,-2.818
59.87,-161.613,-3.139
59.9,-164.702,-3.391
59.93,-168.001,-3.253
59.97,-170.282,-3.345
60.0,-172.984,-3.723
60.03,-176.704,-3.757
60.06,-179.863,-3.666
60.1,-182.776,-3.62
60.13,-185.338,-3.574
60.16,-187.444,-3.654
60.19,-190.286,-3.895
60.23,-194.498,-4.009
60.26,-198.463,-3.906
60.29,-201.131,-3.929
60.32,-203.377,-3.792
60.36,-204.64,-3.712
60.39,-206.325,-3.689
60.42,-207.167,-3.849
60.45,-209.027,-4.158
60.49,-211.905,-4.307
60.52,-214.748,-4.376
60.55,-216.818,-4.445
60.58,-218.854,-4.399
60.62,-220.468,-4.296
60.65,-222.153,-4.365
60.68,-224.925,-4.33
60.71,-226.434,-4.468
60.75,-228.575,-4.823
60.78,-232.014,-4.72
60.81,-234.366,-4.662
60.84,-236.507,-4.766
60.88,-238.086,-4.731
60.91,-239.314,-4.685
60.94,-240.929,-4.846
60.97,-243.21,-4.903
61.01,-245.526,-4.685
61.04,-247.0,-4.777
61.07,-248.72,-5.063
61.11,-250.896,-5.063
61.14,-252.335,-5.098
61.17,-253.738,-5.178
61.2,-255.388,-5.418
61.24,-256.932,-5.774
61.27,-258.617,-6.106
61.3,-260.02,-6.186
61.33,-261.81,-6.266
61.37,-264.091,-6.415
61.4,-265.741,-6.427
61.43,-266.829,-6.392
61.46,-268.408,-6.449
61.5,-270.409,-6.553
61.53,-271.848,-6.713
61.56,-273.392,-6.885
61.59,-274.69,-7.034
61.63,-275.743,-7.148
61.66,-277.498,-6.931
61.69,-278.726,-6.793
61.72,-279.533,-6.919
61.76,-280.376,-7.114
61.79,-281.499,-7.286
61.82,-282.903,-7.675
61.85,-285.254,-7.526
61.89,-286.728,-7.228
61.92,-288.307,-6.988
61.95,-288.553,-7.08
61.98,-289.22,-7.458
62.02,-290.764,-7.217
62.05,-291.641,-7.297
62.08,-292.94,-7.595
62.11,-294.659,-7.377
62.15,-295.396,-7.114
62.18,-295.01,-7.458
62.21,-295.432,-7.561
62.24,-295.818,-7.194
62.28,-296.274,-7.022
62.31,-296.906,-7.16
62.34,-297.607,-7.343
62.37,-299.081,-6.976
62.41,-298.976,-6.965
62.44,-299.152,-7.458
62.47,-299.362,-7.423
62.5,-299.011,-7.274
62.54,-299.783,-7.171
62.57,-300.134,-6.999
62.6,-299.854,-7.435
62.64,-300.941,-7.366
62.67,-301.398,-6.644
62.7,-300.169,-6.85
62.73,-299.818,-6.805
62.77,-298.766,-6.358
62.8,-297.151,-6.438
62.83,-296.906,-6.885
62.86,-297.327,-6.793
62.9,-296.87,-6.553
62.93,-296.063,-6.369
62.96,-294.238,-6.209
62.99,-292.168,-6.083
63.03,-290.132,-6.083
63.06,-289.606,-6.243
63.09,-289.536,-6.449
63.12,-289.325,-6.564
63.16,-288.763,-6.404
63.19,-287.535,-6.117
63.22,-285.675,-5.739
63.25,-282.587,-5.716
63.29,-280.797,-5.636
63.32,-279.919,-5.51
63.35,-279.498,-5.567
63.38,-278.34,-5.567
63.42,-276.48,-5.567
63.45,-275.568,-5.201
63.48,-273.006,-4.96
63.51,-270.128,-5.178
63.55,-268.97,-5.075
63.58,-267.636,-5.052
63.61,-266.794,-5.212
63.64,-265.32,-5.201
63.68,-263.776,-5.132
63.71,-262.582,-4.857
63.74,-260.547,-4.559
63.77,-258.336,-4.399
63.81,-256.195,-4.445
63.84,-255.107,-4.33
63.87,-253.177,-4.204
63.9,-251.212,-4.387
63.94,-250.615,-4.571
63.97,-249.913,-4.17
64.0,-247.281,-3.803
64.04,-244.719,-3.631
64.07,-241.982,-3.723
64.1,-240.262,-3.746
64.13,-237.946,-3.608
64.17,-235.84,-3.803
64.2,-234.576,-3.838
64.23,-232.751,-3.723
64.26,-230.751,-3.586
64.3,-228.61,-3.517
64.33,-226.189,-3.586
64.36,-224.89,-3.505
64.39,-223.03,-3.059
64.43,-220.187,-3.23
64.46,-218.257,-3.551
64.49,-217.204,-3.116
64.52,-214.291,-2.669
64.56,-210.887,-2.807
64.59,-208.29,-2.761
64.62,-205.342,-3.001
64.65,-204.465,-3.013
64.69,-203.377,-2.864
64.72,-201.376,-2.852
64.75,-198.499,-2.543
64.78,-195.024,-2.303
64.82,-191.725,-2.268
64.85,-188.251,-2.257
64.88,-185.127,-2.371
64.91,-183.022,-2.669
64.95,-181.618,-2.726
64.98,-179.758,-2.417
65.01,-176.599,-2.131
65.04,-172.844,-2.005
65.08,-169.615,-1.89
65.11,-166.141,-1.684
65.14,-162.842,-1.73
65.17,-160.385,-1.867
65.21,-157.437,-2.096
65.24,-155.437,-1.695
65.27,-152.559,-1.501
65.3,-149.33,-1.363
65.34,-145.505,-1.237
65.37,-141.714,-1.306
65.4,-138.872,-1.386
65.43,-136.626,-1.512
65.47,-133.888,-1.386
65.5,-130.87,-1.18
65.53,-127.641,-1.031
65.57,-124.237,-1.088
65.6,-120.552,-0.848
65.63,-116.06,-0.55
65.66,-111.568,-0.619
65.7,-108.023,-0.813
65.73,-105.005,-0.779
65.76,-101.881,-0.653
65.79,-98.337,-0.573
65.83,-94.547,-0.367
65.86,-90.405,-0.103
65.89,-85.878,-0.057
65.92,-81.596,-0.218
65.96,-78.262,-0.229
65.99,-75.034,-0.183
66.02,-71.945,-0.263
66.05,-68.927,-0.149
66.09,-65.347,0.126
66.12,-61.417,0.252
66.15,-57.381,0.275
66.18,-53.555,0.286
66.22,-50.011,0.344
66.25,-46.466,0.378
66.28,-43.237,0.424
66.31,-39.728,0.538
66.35,-35.973,0.745
66.38,-31.831,0.779
66.41,-28.006,0.756
66.44,-24.391,0.779
66.48,-21.057,0.836
66.51,-17.758,0.928
66.54,-14.424,1.008
66.57,-11.09,0.974
66.61,-7.721,1.02
66.64,-3.931,1.157
66.67,0.105,1.168
66.7,3.86,1.123
66.74,7.405,1.123
66.77,10.95,1.088
66.8,14.389,1.134
66.83,17.934,1.363
66.87,22.075,1.375
66.9,25.83,1.294
66.93,29.41,1.363
66.96,32.849,1.455
67.0,36.359,1.524
67.03,40.114,1.604
67.06,43.518,1.512
67.1,46.22,1.42
67.13,49.028,1.558
67.16,52.467,1.741
67.19,55.836,1.821
67.23,59.486,1.913
67.26,63.452,2.005
67.29,67.418,2.028
67.32,71.173,1.959
67.36,74.472,1.993
67.39,77.876,2.085
67.42,81.386,2.165
67.45,85.001,2.222
67.49,88.826,2.303
67.52,92.651,2.417
67.55,96.407,2.463
67.58,100.092,2.474
67.62,103.671,2.383
67.65,106.619,2.36
67.68,109.462,2.429
67.71,112.024,2.566
67.75,115.569,2.772
67.78,119.745,2.864
67.81,123.535,3.024
67.84,127.255,3.047
67.88,130.624,2.864
67.91,133.327,2.864
67.94,136.099,3.001
67.97,139.539,3.127
68.01,143.013,3.23
68.04,147.154,3.402
68.07,151.506,3.574
68.1,154.875,3.368
68.14,156.63,2.978
68.17,159.122,3.299
68.2,162.491,3.368
68.23,164.772,3.391
68.27,167.65,3.379
68.3,170.493,3.528
68.33,173.721,3.723
68.36,177.266,3.643
68.4,180.074,3.608
68.43,182.635,3.631
68.46,185.057,3.563
68.5,187.689,3.666
68.53,190.672,4.124
68.56,194.463,4.525
68.59,198.885,4.559
68.63,203.201,4.319
68.66,205.939,4.101
68.69,207.623,3.849
68.72,208.536,3.563
68.76,208.676,3.757
68.79,210.431,4.044
68.82,212.326,4.17
68.85,215.028,4.284
68.89,217.941,4.193
68.92,219.415,4.147
68.95,219.942,4.09
68.98,220.854,4.067
69.02,222.258,4.307
69.05,224.68,4.697
69.08,227.592,4.857
69.11,230.576,4.869
69.15,233.804,4.903
69.18,236.331,4.903
69.21,237.91,4.685
69.24,239.069,4.685
69.28,241.209,4.857
69.31,243.806,4.834
69.34,245.947,4.903
69.37,247.597,4.892
69.41,249.141,4.983
69.44,250.966,5.04
69.47,252.791,5.132
69.5,254.475,4.949
69.54,255.984,4.811
69.57,257.669,5.121
69.6,259.985,5.258
69.63,262.372,5.029
69.67,263.495,5.178
69.7,265.671,5.327
69.73,266.934,5.018
69.76,266.513,5.315
69.8,267.426,5.865
69.83,270.198,5.877
69.86,273.216,5.693
69.89,274.971,5.831
69.93,276.375,5.968
69.96,276.761,6.003
69.99,277.112,6.037
70.03,278.726,5.957
70.06,280.06,5.831
70.09,280.797,6.083
70.12,281.85,6.495
70.16,283.85,6.438
70.19,285.464,6.507
70.22,287.746,6.392
70.25,288.763,6.026
70.29,288.518,6.598
70.32,289.957,6.793
70.35,291.22,6.484
70.38,292.378,6.564
70.42,293.712,6.701
70.45,294.905,6.701
70.48,295.993,6.484
70.51,296.344,6.449
70.55,296.519,6.495
70.58,296.59,6.232
70.61,296.73,6.014
70.64,296.941,6.152
70.68,297.292,6.358
70.71,297.607,6.381
70.74,297.853,6.472
70.77,298.274,6.69
70.81,298.73,6.782
70.84,299.854,6.22
70.87,299.678,6.049
70.9,300.45,6.782
70.94,301.643,6.358
70.97,301.152,5.968
71.0,300.099,6.175
71.03,299.538,6.106
71.07,298.836,5.453
71.1,296.414,5.476
71.13,296.169,6.083
71.16,297.643,6.197
71.2,298.695,6.071
71.23,298.766,6.049
71.26,298.38,5.98
71.29,297.467,5.728
71.33,296.028,5.579
71.36,294.238,5.682
71.39,293.712,5.785
71.42,294.063,5.648
71.46,293.361,5.476
71.49,291.08,5.418
71.52,289.185,5.075
71.56,286.166,4.777
71.59,282.832,4.937
71.62,281.007,4.811
71.65,278.867,4.834
71.69,278.305,5.018
71.72,278.516,4.731
71.75,277.287,4.422
71.78,274.023,4.548
71.82,271.146,4.628
71.85,269.11,4.525
71.88,268.513,4.617
71.91,268.338,4.674
71.95,267.496,4.731
71.98,267.145,4.422
72.01,265.39,4.273
72.04,263.425,4.25
72.08,260.933,4.078
72.11,259.283,3.723
72.14,256.721,3.849
72.17,255.353,4.021
72.21,253.072,3.918
72.24,251.562,4.239
72.27,250.65,4.296
72.3,249.632,3.918
72.34,247.246,3.528
72.37,244.403,3.723
72.4,242.368,3.895
72.43,240.543,3.872
72.47,239.139,3.769
72.5,236.647,3.861
72.53,234.927,3.643
72.56,233.313,3.437
72.6,230.891,3.311
72.63,228.961,3.322
72.66,226.75,3.574
72.69,225.311,3.666
72.73,223.592,3.471
72.76,221.767,3.551
72.79,220.714,3.437
72.82,218.257,3.15
72.86,215.309,2.818
72.89,211.414,2.807
72.92,208.466,2.852
72.96,206.114,2.864
72.99,203.973,3.082
73.02,202.359,3.139
73.05,201.025,2.967
73.09,198.148,2.875
73.12,195.375,2.692
73.15,192.392,2.474
73.18,189.268,2.463
73.22,186.285,2.44
73.25,183.934,2.646
73.28,182.355,2.589
73.31,179.898,2.314
73.35,176.634,1.936
73.38,172.528,1.982
73.41,168.843,1.993
73.44,165.088,1.799
73.48,161.578,2.073
73.51,159.157,2.36
73.54,157.578,2.394
73.57,155.542,2.131
73.61,152.489,1.913
73.64,149.225,1.799
73.67,145.68,1.65
73.7,142.206,1.661
73.74,139.574,1.821
73.77,137.292,1.81
73.8,134.52,1.695
73.83,130.905,1.42
73.87,127.325,1.294
73.9,124.167,1.34
73.93,121.078,1.226
73.96,117.464,0.882
74.0,113.007,0.813
74.03,109.111,1.042
74.06,105.742,1.042
74.09,102.197,0.813
74.13,97.916,0.745
74.16,93.774,0.653
74.19,89.317,0.481
74.22,84.72,0.538
74.26,81.245,0.619
74.29,78.192,0.687
74.32,75.56,0.699
74.35,72.472,0.653
74.39,69.559,0.47
74.42,65.979,0.229
74.45,61.803,0.218
74.49,58.012,0.195
74.52,54.187,0.137
74.55,50.783,0.183
74.58,47.554,0.218
74.62,44.185,0.149
74.65,40.746,0.034
74.68,37.131,-0.046
74.71,33.411,-0.137
74.75,29.585,-0.229
74.78,25.76,-0.309
74.81,22.04,-0.332
74.84,18.425,-0.344
74.88,14.951,-0.424
74.91,11.16,-0.515
74.94,7.265,-0.504
74.97,3.299,-0.55
75.01,-0.702,-0.584
75.04,-4.562,-0.55
75.07,-7.756,-0.355
75.1,-10.529,-0.252
75.14,-13.055,-0.55
75.17,-16.881,-0.813
75.2,-21.057,-0.882
75.23,-25.023,-0.951
75.27,-28.989,-0.962
75.3,-32.779,-1.008
75.33,-36.499,-1.134
75.36,-39.973,-1.042
75.4,-43.132,-0.939
75.43,-46.045,-1.088
75.46,-49.309,-1.214
75.49,-52.538,-1.26
75.53,-55.836,-1.409
75.56,-59.767,-1.604
75.59,-63.838,-1.638
75.62,-67.804,-1.638
75.66,-71.419,-1.638
75.69,-74.683,-1.661
75.72,-77.876,-1.684
75.75,-81.175,-1.787
75.79,-84.755,-1.925
75.82,-88.615,-2.028
75.85,-92.441,-2.073
75.88,-95.915,-2.177
75.92,-99.565,-2.234
75.95,-103.215,-2.188
75.98,-106.549,-2.211
76.02,-109.708,-2.314
76.05,-113.112,-2.36
76.08,-116.551,-2.486
76.11,-120.236,-2.577
76.15,-123.816,-2.726
76.18,-127.676,-2.772
76.21,-131.537,-2.577
76.24,-134.134,-2.532
76.28,-136.626,-2.566
76.31,-139.539,-2.669
76.34,-142.943,-2.898
76.37,-146.979,-3.047
76.41,-151.12,-3.07
76.44,-153.928,-3.139
76.47,-155.858,-3.07
76.5,-157.788,-2.887
76.54,-160.561,-3.391
76.57,-164.702,-3.586
76.6,-168.597,-3.265
76.63,-171.054,-3.265
76.67,-173.405,-3.494
76.7,-176.178,-3.563
76.73,-179.196,-3.528
76.76,-181.758,-3.608
76.8,-184.706,-3.62
76.83,-187.83,-3.505
76.86,-190.462,-3.746
76.89,-193.831,-4.101
76.93,-197.551,-4.078
76.96,-200.639,-3.918
76.99,-202.85,-3.929
77.02,-204.816,-3.872
77.06,-206.395,-3.757
77.09,-207.413,-3.883
77.12,-209.132,-4.17
77.15,-212.08,-4.319
77.19,-215.274,-4.261
77.22,-217.555,-4.261
77.25,-218.889,-4.284
77.28,-219.907,-4.33
77.32,-222.047,-4.296
77.35,-224.258,-4.376
77.38,-227.066,-4.548
77.42,-230.084,-4.445
77.45,-232.19,-4.525
77.48,-234.506,-4.548
77.51,-236.015,-4.571
77.55,-237.454,-4.708
77.58,-239.314,-4.743
77.61,-241.876,-4.731
77.64,-243.491,-4.892
77.68,-245.596,-4.903
77.71,-247.527,-4.857
77.74,-249.106,-5.086
77.77,-250.79,-5.338
77.81,-252.475,-5.396
77.84,-254.16,-5.373
77.87,-255.879,-5.487
77.9,-258.441,-5.373
77.94,-258.792,-5.59
77.97,-259.389,-5.9
78.0,-260.968,-5.934
78.03,-263.635,-6.003
78.07,-265.425,-6.163
78.1,-267.25,-6.163
78.13,-269.18,-5.934
78.16,-269.987,-6.255
78.2,-271.426,-6.53
78.23,-272.374,-6.747
78.26,-274.515,-6.931
78.29,-276.866,-6.77
78.33,-277.708,-6.69
78.36,-278.059,-6.885
78.39,-279.077,-6.931
78.42,-280.06,-6.942
78.46,-281.148,-7.332
78.49,-283.675,-7.343
78.52,-286.096,-6.896
78.55,-286.728,-6.999
78.59,-287.149,-7.503
78.62,-288.483,-7.332
78.65,-289.255,-7.137
78.68,-289.816,-7.423
78.72,-291.185,-7.71
78.75,-293.326,-7.4
78.78,-294.519,-7.194
78.81,-294.8,-7.503
78.85,-295.572,-7.561
78.88,-296.028,-7.286
78.91,-295.642,-7.297
78.95,-295.958,-7.32
78.98,-296.835,-7.366
79.01,-297.748,-7.309
79.04,-298.344,-7.183
79.08,-298.59,-7.309
79.11,-299.538,-7.354
79.14,-300.275,-7.034
79.17,-300.169,-6.828
79.21,-300.099,-6.931
79.24,-299.889,-7.022
79.27,-300.31,-7.206
79.3,-301.152,-6.919
79.34,-300.731,-6.633
79.37,-299.643,-6.724
79.4,-299.538,-6.438
79.43,-298.485,-6.083
79.47,-296.519,-6.415
79.5,-296.625,-6.759
79.53,-297.397,-6.495
79.56,-296.519,-6.415
79.6,-294.73,-6.518
79.63,-292.484,-6.484
79.66,-291.01,-6.381
79.69,-290.729,-6.232
79.73,-290.378,-6.323
79.76,-289.957,-6.53
79.79,-289.009,-6.553
79.82,-288.553,-6.358
79.86,-287.64,-5.991
79.89,-285.535,-5.739
79.92,-282.867,-5.579
79.95,-280.376,-5.579
79.99,-279.393,-5.659
80.02,-279.147,-5.705
80.05,-278.516,-5.67
80.08,-277.042,-5.567
80.12,-274.831,-5.396
80.15,-271.777,-5.338
80.18,-270.409,-5.201
80.21,-269.707,-4.949
80.25,-268.478,-5.04
80.28,-266.899,-5.144
80.31,-265.565,-4.983
80.34,-264.653,-4.72
80.38,-262.372,-4.708
80.41,-259.95,-4.536
80.44,-257.704,-4.284
80.48,-255.914,-4.33
80.51,-254.791,-4.41
80.54,-253.423,-4.319
80.57,-252.299,-4.158
80.61,-251.247,-4.33
80.64,-250.685,-4.032
80.67,-248.474,-3.345
80.7,-244.614,-3.299
80.74,-241.631,-3.643
80.77,-239.49,-3.78
80.8,-237.63,-3.712
80.83,-236.261,-3.666
80.87,-234.12,-3.861
80.9,-232.611,-3.78
80.93,-230.47,-3.471
80.96,-228.54,-3.368
81.0,-226.434,-3.322
81.03,-223.627,-3.528
81.06,-222.083,-3.208
81.09,-220.503,-3.059
81.13,-219.24,-3.334
81.16,-217.52,-3.059
81.19,-214.397,-2.555
81.22,-210.677,-2.612
81.26,-207.623,-2.887
81.29,-205.377,-3.047
81.32,-204.079,-3.15
81.35,-202.991,-3.185
81.39,-201.517,-2.978
81.42,-199.06,-2.589
81.45,-195.551,-2.303
81.48,-191.725,-2.257
81.52,-188.286,-2.28
81.55,-185.654,-2.406
81.58,-183.899,-2.6
81.61,-182.179,-2.658
81.65,-180.109,-2.394
81.68,-176.74,-2.051
81.71,-172.914,-1.947
81.74,-169.37,-1.867
81.78,-165.72,-1.741
81.81,-162.561,-1.753
81.84,-160.315,-1.982
81.88,-158.49,-1.936
81.91,-155.647,-1.569
81.94,-152.103,-1.501
81.97,-148.383,-1.363
82.01,-144.908,-1.352
82.04,-141.855,-1.352
82.07,-139.188,-1.409
82.1,-137.012,-1.524
82.14,-134.59,-1.226
82.17,-130.975,-0.997
82.2,-127.29,-0.939
82.23,-123.746,-0.962
82.27,-119.92,-0.859
82.3,-115.674,-0.653
82.33,-111.603,-0.699
82.36,-108.339,-0.859
82.4,-105.356,-0.848
82.43,-102.373,-0.642
82.46,-98.758,-0.47
82.49,-94.582,-0.298
82.53,-89.984,-0.126
82.56,-85.667,-0.069
82.59,-81.491,-0.252
82.62,-78.333,-0.321
82.66,-75.455,-0.206
82.69,-72.612,-0.172
82.72,-69.453,-0.023
82.75,-65.488,0.195
82.79,-61.206,0.332
82.82,-57.1,0.298
82.85,-53.45,0.275
82.88,-50.011,0.286
82.92,-46.747,0.355
82.95,-43.553,0.447
82.98,-40.044,0.561
83.01,-36.113,0.722
83.05,-32.007,0.779
83.08,-28.181,0.756
83.11,-24.777,0.733
83.14,-21.654,0.825
83.18,-18.25,0.905
83.21,-14.88,1.02
83.24,-11.336,1.042
83.27,-7.616,1.111
83.31,-3.51,1.226
83.34,0.807,1.203
83.37,4.527,1.1
83.41,7.967,1.042
83.44,11.055,0.974
83.47,13.687,1.214
83.5,17.548,1.409
83.54,21.584,1.409
83.57,25.374,1.455
83.6,29.059,1.524
83.63,32.814,1.592
83.67,36.569,1.592
83.7,40.219,1.638
83.73,43.448,1.569
83.76,46.08,1.501
83.8,48.888,1.707
83.83,52.467,1.902
83.86,56.258,1.89
83.89,59.872,1.982
83.93,63.803,2.085
83.96,67.839,2.051
83.99,71.349,1.947
84.02,74.472,2.005
84.06,77.736,2.096
84.09,81.175,2.188
84.12,84.93,2.268
84.15,88.791,2.348
84.19,92.476,2.451
84.22,96.442,2.394
84.25,99.916,2.406
84.28,103.32,2.383
84.32,105.917,2.429
84.35,108.865,2.532
84.38,111.954,2.612
84.41,115.498,2.852
84.45,119.534,3.013
84.48,123.395,3.059
84.51,127.185,3.047
84.54,130.379,2.978
84.58,132.941,2.944
84.61,135.468,3.093
84.64,138.802,3.345
84.67,142.627,3.356
84.71,146.628,3.631
84.74,151.541,3.757
84.77,155.296,3.379
84.8,157.156,2.978
84.84,159.087,3.276
84.87,162.07,3.437
84.9,164.561,3.437
84.94,167.123,3.563
84.97,170.212,3.723
85.0,173.441,3.895
85.03,176.704,3.918
85.07,180.074,3.849
85.1,183.092,3.677
85.13,184.811,3.757
85.16,187.338,3.918
85.2,190.848,4.032
85.23,194.498,4.239
85.26,197.832,4.41
85.29,200.78,4.33
85.33,202.991,4.204
85.36,205.342,4.021
85.39,206.676,3.872
85.42,207.518,4.101
85.46,209.904,4.204
85.49,211.94,4.33
85.52,214.537,4.513
85.55,217.625,4.399
85.59,219.45,4.319
85.62,220.398,4.284
85.65,221.732,4.261
85.68,223.416,4.433
85.72,225.943,4.846
85.75,229.523,4.88
85.78,232.365,4.72
85.81,234.225,4.995
85.85,236.682,5.04
85.88,238.367,4.674
85.91,239.981,4.685
85.94,241.736,4.903
85.98,243.42,5.018
86.01,245.456,5.063
86.04,247.176,5.132
86.07,249.562,5.235
86.11,252.475,5.098
86.14,254.616,4.926
86.17,254.897,4.846
86.2,255.388,4.903
86.24,257.108,5.178
86.27,259.389,5.396
86.3,260.722,5.59
86.34,262.372,5.854
86.37,265.109,5.693
86.4,266.162,5.579
86.43,267.355,5.659
86.47,269.145,5.659
86.5,270.444,5.831
86.53,272.093,6.014
86.56,274.655,5.9
86.6,275.533,6.003
86.63,276.234,6.312
86.66,277.393,6.014
86.69,277.287,6.117
86.73,278.551,6.507
86.76,280.27,6.472
86.79,281.709,6.495
86.82,283.534,6.782
86.86,285.429,6.908
86.89,286.868,6.896
86.92,288.412,6.598
86.95,289.044,6.541
86.99,289.536,6.908
87.02,290.623,7.034
87.05,292.273,6.919
87.08,293.817,6.839
87.12,295.186,6.873
87.15,296.274,6.69
87.18,297.186,6.484
87.21,297.748,6.186
87.25,295.747,6.461
87.28,295.712,6.644
87.31,297.572,6.461
87.34,297.993,6.61
87.38,298.064,6.885
87.41,298.309,6.896
87.44,298.976,6.816
87.47,299.327,6.839
87.51,300.134,6.484
87.54,300.485,6.083
87.57,300.38,6.839
87.6,300.591,7.102
87.64,301.012,6.564
87.67,300.696,6.53
87.7,300.485,6.862
87.73,300.24,6.438
87.77,298.871,6.106
87.8,299.187,6.289
87.83,299.818,6.438
87.87,300.204,6.197
87.9,299.222,5.9
87.93,297.362,5.934
87.96,296.133,5.762
88.0,294.905,5.453
88.03,293.571,5.35
88.06,292.413,5.487
88.09,291.396,5.602
88.13,290.974,5.831
88.16,292.729,6.358
88.19,295.361,6.679
88.22,296.169,6.564
88.26,295.045,6.209
88.29,293.08,5.945
88.32,291.606,5.625
88.35,289.886,5.212
88.39,287.675,4.846
88.42,284.236,4.536
88.45,280.165,4.376
88.48,277.322,4.09
88.52,273.883,4.09
88.55,271.146,4.422
88.58,269.917,4.399
88.61,268.9,4.307
88.65,267.531,4.445
88.68,266.162,4.353
88.71,263.46,4.193
88.74,260.477,4.25
88.78,258.511,3.895
88.81,255.142,4.055
88.84,253.879,4.25
88.87,252.58,4.055
88.91,251.071,4.387
88.94,250.615,4.685
88.97,250.334,4.468
89.0,249.387,4.067
89.04,246.579,3.883
89.07,244.193,3.895
89.1,242.999,3.872
89.13,241.245,3.803
89.17,238.191,3.586
89.2,234.962,3.505
89.23,232.436,3.54
89.26,230.505,3.368
89.3,228.505,3.379
89.33,226.469,3.414
89.36,223.978,3.391
89.4,222.363,3.414
89.43,220.819,3.379
89.46,218.398,3.288
89.49,215.52,3.116
89.53,212.361,3.047
89.56,209.694,3.288
89.59,208.15,3.402
89.62,206.956,3.368
89.66,206.079,3.368
89.69,204.57,3.208
89.72,201.236,2.887
89.75,198.183,2.451
89.79,194.743,2.28
89.82,191.374,2.497
89.85,188.356,2.509
89.88,185.794,2.692
89.92,184.46,2.944
89.95,183.443,2.852
89.98,181.091,2.234
90.01,176.564,1.833
90.05,172.353,1.913
90.08,168.668,1.936
90.11,164.491,1.936
90.14,161.087,2.142
90.18,159.543,2.44
90.21,158.104,2.451
90.24,155.296,1.89
90.27,151.12,1.466
90.31,146.838,1.695
90.34,143.469,1.879
90.37,140.627,1.627
90.4,137.082,1.638
90.44,134.836,2.062
90.47,133.783,1.902
90.5,130.8,1.386
90.53,126.939,1.065
90.57,122.974,1.123
90.6,118.411,0.951
90.63,109.006,-0.951
90.66,94.547,-1.925
90.7,83.842,-0.057
90.73,81.105,1.741
90.76,82.649,2.096
90.8,85.246,2.429
90.83,87.247,2.062
90.86,86.755,1.272
90.89,84.615,1.191
90.93,82.509,1.042
90.96,79.842,0.664
90.99,76.543,0.561
91.02,73.595,0.687
91.06,70.998,0.664
91.09,68.085,0.447
91.12,64.47,0.309
91.15,60.96,0.275
91.19,57.346,0.183
91.22,53.555,0.08
91.25,49.519,-0.023
91.28,45.589,-0.092
91.32,41.623,-0.149
91.35,37.482,-0.195
91.38,33.06,-0.309
91.41,28.918,-0.298
91.45,25.233,-0.252
91.48,21.759,-0.321
91.51,18.355,-0.332
91.54,15.056,-0.378
91.58,11.476,-0.515
91.61,7.721,-0.47
91.64,4.036,-0.435
91.67,0.737,-0.389
91.71,-2.316,-0.344
91.74,-4.878,-0.252
91.77,-7.616,-0.309
91.8,-10.493,-0.412
91.84,-13.371,-0.71
91.87,-17.653,-0.928
91.9,-22.215,-0.985
91.93,-26.778,-1.1
91.97,-31.165,-1.1
92.0,-35.236,-1.134
92.03,-39.447,-1.214
92.06,-43.658,-1.157
92.1,-47.414,-1.168
92.13,-50.993,-1.283
92.16,-54.678,-1.317
92.19,-57.942,-1.203
92.23,-60.855,-1.26
92.26,-63.943,-1.455
92.29,-67.313,-1.512
92.33,-70.717,-1.512
92.36,-74.542,-1.558
92.39,-77.876,-1.512
92.42,-80.649,-1.535
92.46,-83.421,-1.684
92.49,-86.966,-1.936
92.52,-91.353,-2.188
92.55,-96.126,-2.222
92.59,-100.021,-2.131
92.62,-103.11,-2.108
92.65,-105.882,-2.085
92.68,-108.795,-2.085
92.72,-111.778,-2.177
92.75,-114.867,-2.371
92.78,-118.411,-2.543
92.81,-122.482,-2.726
92.85,-126.659,-2.669
92.88,-129.922,-2.532
92.91,-132.835,-2.486
92.94,-135.362,-2.463
92.98,-137.608,-2.555
93.01,-140.556,-2.726
93.04,-144.136,-2.978
93.07,-148.418,-3.185
93.11,-152.419,-3.15
93.14,-155.472,-3.001
93.17,-158.35,-2.875
93.2,-160.526,-3.116
93.24,-163.403,-3.322
93.27,-167.088,-3.185
93.3,-170.282,-3.368
93.33,-173.581,-3.666
93.37,-176.915,-3.608
93.4,-179.828,-3.482
93.43,-182.39,-3.482
93.46,-184.811,-3.54
93.5,-187.057,-3.631
93.53,-190.111,-3.826
93.56,-193.936,-4.009
93.59,-197.867,-4.032
93.63,-200.92,-3.872
93.66,-203.096,-3.746
93.69,-204.886,-3.631
93.72,-206.149,-3.631
93.76,-207.623,-3.689
93.79,-209.273,-3.895
93.82,-211.765,-4.147
93.86,-214.607,-4.25
93.89,-216.994,-4.273
93.92,-219.275,-4.181
93.95,-220.644,-4.193
93.99,-221.872,-4.319
94.02,-223.627,-4.479
94.05,-226.294,-4.617
94.08,-229.347,-4.72
94.12,-232.19,-4.857
94.15,-234.927,-4.788
94.18,-237.595,-4.548
94.21,-239.069,-4.456
94.25,-239.665,-4.582
94.28,-241.701,-4.651
94.31,-244.333,-4.651
94.34,-246.333,-4.788
94.38,-248.018,-5.086
94.41,-250.404,-4.995
94.44,-252.229,-4.743
94.47,-253.668,-4.617
94.51,-254.721,-4.605
94.54,-256.09,-4.743
94.57,-257.108,-5.109
94.6,-258.687,-5.43
94.64,-260.933,-5.625
94.67,-263.214,-5.854
94.7,-264.232,-6.003
94.73,-264.407,-6.22
94.77,-266.618,-6.243
94.8,-269.286,-6.186
94.83,-271.005,-6.427
94.86,-273.286,-6.438
94.9,-274.515,-6.083
94.93,-274.374,-6.209
94.96,-274.725,-6.621
94.99,-276.41,-6.553
95.03,-277.568,-6.667
95.06,-279.323,-6.839
95.09,-280.727,-6.736
95.12,-282.13,-6.954
95.16,-284.271,-6.988
95.19,-285.851,-7.068
95.22,-287.114,-6.999
95.26,-287.781,-7.045
95.29,-288.588,-7.057
95.32,-289.325,-7.114
95.35,-290.659,-7.068
95.39,-291.782,-7.137
95.42,-293.115,-7.263
95.45,-293.922,-7.412
95.48,-294.8,-7.526
95.52,-296.169,-7.24
95.55,-296.59,-7.045
95.58,-296.239,-7.251
95.61,-297.151,-7.194
95.65,-297.678,-6.908
95.68,-297.853,-7.034
95.71,-299.327,-7.194
95.74,-300.029,-6.805
95.78,-299.783,-7.412
95.81,-300.661,-7.206
95.84,-300.029,-6.61
95.87,-298.871,-6.919
95.91,-299.678,-7.263
95.94,-300.45,-6.976
95.97,-299.818,-6.828
96.0,-299.467,-6.782
96.04,-299.152,-6.507
96.07,-297.713,-6.415
96.1,-296.59,-6.472
96.13,-297.362,-6.301
96.17,-297.853,-6.255
96.2,-297.011,-6.449
96.23,-295.642,-6.518
96.26,-295.291,-6.152
96.3,-293.852,-5.945
96.33,-291.817,-6.152
96.36,-290.237,-6.083
96.39,-288.167,-6.415
96.43,-288.483,-6.919
96.46,-290.483,-6.575
96.49,-289.781,-6.358
96.52,-287.781,-6.404
96.56,-286.447,-5.797
96.59,-283.64,-5.361
96.62,-280.762,-5.613
96.65,-279.042,-5.877
96.69,-278.481,-5.923
96.72,-278.305,-5.865
96.75,-277.603,-5.831
96.79,-276.305,-5.533
96.82,-273.848,-5.155
96.85,-271.426,-4.983
96.88,-269.11,-5.086
96.92,-267.566,-5.27
96.95,-266.864,-5.292
96.98,-266.338,-5.132
97.01,-265.285,-4.972
97.05,-263.179,-4.823
97.08,-260.933,-4.399
97.11,-258.231,-4.261
97.14,-256.686,-4.387
97.18,-255.704,-4.33
97.21,-254.335,-4.239
97.24,-253.668,-3.987
97.27,-251.633,-4.009
97.31,-249.387,-4.239
97.34,-248.193,-3.792
97.37,-246.228,-3.677
97.4,-244.579,-4.021
97.44,-243.175,-3.563
97.47,-239.665,-3.219
97.5,-235.98,-3.299
97.53,-233.91,-3.322
97.57,-232.014,-3.23
97.6,-229.172,-3.391
97.63,-226.61,-3.528
97.66,-225.136,-3.528
97.7,-224.609,-3.448
97.73,-222.433,-3.299
97.76,-220.012,-3.402
97.79,-218.713,-3.54
97.83,-217.836,-3.15
97.86,-215.169,-2.681
97.89,-211.589,-2.704
97.92,-208.641,-2.807
97.96,-206.711,-2.795
97.99,-205.272,-2.772
98.02,-203.166,-2.864
98.05,-201.166,-2.761
98.09,-198.639,-2.497
98.12,-195.866,-2.188
98.15,-192.357,-2.073
98.18,-188.251,-2.142
98.22,-184.706,-2.325
98.25,-182.951,-2.658
98.28,-181.653,-2.738
98.32,-180.144,-2.451
98.35,-177.266,-2.085
98.38,-173.686,-1.959
98.41,-169.861,-1.81
98.45,-165.965,-1.81
98.48,-162.877,-1.764
98.51,-160.771,-2.108
98.54,-159.297,-1.913
98.58,-155.928,-1.18
98.61,-151.752,-1.272
98.64,-147.716,-1.283
98.67,-144.733,-1.478
98.71,-142.451,-1.615
98.74,-140.135,-1.443
98.77,-137.503,-1.26
98.8,-134.274,-1.134
98.84,-130.519,-0.997
98.87,-126.764,-0.928
98.9,-123.009,-0.939
98.93,-119.043,-0.699
98.97,-114.41,-0.584
99.0,-110.339,-0.825
99.03,-107.567,-1.008
99.06,-104.97,-0.916
99.1,-102.303,-0.676
99.13,-98.758,-0.527
99.16,-94.792,-0.286
99.19,-89.984,-0.069
99.23,-85.176,-0.172
99.26,-81.526,-0.309
99.29,-78.613,-0.263
99.32,-75.771,-0.229
99.36,-72.893,-0.218
99.39,-69.453,-0.069
99.42,-65.523,0.195
99.45,-61.311,0.298
99.49,-57.275,0.275
99.52,-53.661,0.286
99.55,-50.221,0.332
99.58,-46.642,0.355
99.62,-43.448,0.401
99.65,-40.079,0.504
99.68,-36.569,0.619
99.72,-33.025,0.596
99.75,-29.62,0.596
99.78,-26.462,0.676
99.81,-23.268,0.779
99.85,-19.794,0.928
99.88,-15.933,1.1
99.91,-11.581,1.329
99.94,-6.352,1.524
99.98,-0.877,1.466
100.01,3.685,1.168
100.04,6.879,0.905
100.07,9.406,0.836
100.11,11.16,0.825
100.14,13.126,0.871
100.17,15.933,1.146
100.2,19.899,1.512
100.24,24.356,1.718
100.27,28.813,1.684
100.3,32.919,1.673
100.33,36.745,1.673
100.37,40.324,1.615
100.4,43.272,1.501
100.43,45.799,1.524
100.46,48.782,1.741
100.5,52.292,1.97
100.53,56.187,1.993
100.56,59.943,2.005
100.59,63.838,2.131
100.63,67.874,2.119
100.66,71.419,2.016
100.69,74.648,2.039
100.72,77.946,2.119
100.76,81.421,2.188
100.79,84.72,2.325
100.82,88.44,2.474
100.85,92.546,2.532
100.89,96.652,2.497
100.92,99.951,2.555
100.95,103.25,2.532
100.98,106.303,2.497
101.02,109.216,2.6
101.05,112.515,2.6
101.08,115.709,2.726
101.11,119.534,2.921
101.15,123.43,2.956
101.18,127.045,3.001
101.21,130.344,2.967
101.25,132.941,2.978
101.28,135.924,3.093
101.31,139.258,3.23
101.34,142.662,3.368
101.38,146.277,3.356
101.41,149.892,3.494
101.44,153.928,3.654
101.47,157.297,3.311
101.51,159.859,3.448
101.54,162.21,3.62
101.57,164.912,3.574
101.6,167.896,3.563
101.64,170.773,3.78
101.67,173.792,4.044
101.7,177.161,3.975
101.73,179.723,3.987
101.77,182.776,3.941
101.8,184.952,3.883
101.83,187.268,4.067
101.86,190.076,4.353
101.9,193.761,4.502
101.93,197.27,4.548
101.96,200.78,4.525
101.99,203.552,4.273
102.03,205.342,4.101
102.06,206.57,4.009
102.09,207.764,4.09
102.12,209.659,4.33
102.16,211.975,4.559
102.19,214.642,4.617
102.22,217.31,4.639
102.25,219.556,4.639
102.29,221.275,4.422
102.32,222.398,4.41
102.35,224.048,4.639
102.38,226.048,5.018
102.42,228.821,5.224
102.45,232.12,5.121
102.48,235.313,5.109
102.51,237.91,5.04
102.55,238.963,4.697
102.58,239.56,4.697
102.61,241.174,4.903
102.64,242.789,5.075
102.68,244.894,5.098
102.71,246.754,5.086
102.74,249.071,5.441
102.78,251.843,5.418
102.81,253.914,5.178
102.84,254.721,5.029
102.87,255.739,5.132
102.91,257.88,5.258
102.94,259.634,5.396
102.97,261.108,5.544
103.0,263.249,5.51
103.04,264.618,5.579
103.07,265.39,5.625
103.1,266.338,5.682
103.13,268.303,5.774
103.17,270.058,5.991
103.2,272.023,6.22
103.23,274.339,6.14
103.26,275.497,6.289
103.3,276.585,6.472
103.33,277.849,6.14
103.36,278.621,5.957
103.39,279.323,6.22
103.43,280.2,6.495
103.46,281.709,6.575
103.49,283.253,6.805
103.52,285.5,6.988
103.56,286.903,6.816
103.59,287.816,6.942
103.62,289.36,6.759
103.65,290.553,6.564
103.69,291.711,6.553
103.72,292.905,6.747
103.75,294.449,6.747
103.78,295.081,6.816
103.82,295.432,6.988
103.85,296.098,6.805
103.88,296.098,6.621
103.91,296.028,6.621
103.95,296.204,6.564
103.98,297.362,6.495
104.01,297.643,6.53
104.04,298.029,6.885
104.08,299.152,6.53
104.11,299.081,6.69
104.14,299.327,6.919
104.17,299.994,6.553
104.21,299.854,6.175
104.24,299.924,6.724
104.27,301.012,6.873
104.31,300.801,6.782
104.34,301.117,6.564
104.37,300.941,6.507
104.4,300.24,6.484
104.44,297.853,6.449
104.47,296.87,6.747
104.5,298.766,6.77
104.53,300.696,6.358
104.57,299.327,6.266
104.6,297.748,6.152
104.63,295.467,5.751
104.66,293.15,5.762
104.7,292.694,5.785
104.73,293.431,6.026
104.76,295.361,6.564
104.79,296.941,6.507
104.83,295.432,6.152
104.86,292.554,5.716
104.89,289.185,5.098
104.92,285.324,4.72
104.96,282.832,4.502
104.99,280.937,4.296
105.02,278.831,4.181
105.05,276.059,4.342
105.09,273.427,4.639
105.12,271.988,4.8
105.15,271.461,4.605
105.18,270.058,4.559
105.22,268.9,4.399
105.25,266.373,4.319
105.28,263.705,4.445
105.31,261.635,4.594
105.35,260.512,4.72
105.38,259.985,4.628
105.41,258.862,4.445
105.44,257.143,4.399
105.48,255.914,4.513
105.51,254.861,4.513
105.54,253.563,4.193
105.57,251.738,4.376
105.61,250.72,4.697
105.64,249.387,4.387
105.67,247.141,3.872
105.71,244.579,3.735
105.74,242.052,3.746
105.77,238.963,3.608
105.8,236.05,3.631
105.84,234.225,3.757
105.87,232.892,4.113
105.9,232.541,4.101
105.93,230.927,3.735
105.97,228.435,3.735
106.0,226.189,3.849
106.03,224.399,3.712
106.06,222.855,3.368
106.1,220.714,3.299
106.13,218.678,3.402
106.16,216.502,3.276
106.19,213.835,3.036
106.23,210.992,3.082
106.26,208.536,3.265
106.29,206.535,3.23
106.32,204.395,3.208
106.36,202.78,3.265
106.39,201.201,3.219
106.42,198.92,3.104
106.45,196.252,2.83
106.49,193.34,2.681
106.52,190.813,2.486
106.55,187.093,2.383
106.58,183.618,2.646
106.62,181.653,2.681
106.65,179.301,2.177
106.68,175.511,2.188
106.71,172.282,2.406
106.75,169.826,2.543
106.78,166.772,2.096
106.81,163.228,1.925
106.84,160.35,2.314
106.88,158.49,2.314
106.91,155.928,2.062
106.94,153.191,2.028
106.97,149.927,1.718
107.01,146.136,1.787
107.04,142.873,1.65
107.07,139.082,1.455
107.1,135.889,1.501
107.14,132.87,1.604
107.17,130.098,1.569
107.2,127.29,1.443
107.24,124.132,1.283
107.27,120.587,0.997
107.3,116.165,0.676
107.33,111.357,0.722
107.37,107.497,0.939
107.4,103.847,1.02
107.43,100.372,0.882
107.46,96.793,0.871
107.5,93.599,0.882
107.53,90.37,0.745
107.56,86.896,0.607
107.59,83.421,0.699
107.63,80.754,0.813
107.66,78.438,0.722
107.69,75.735,0.596
107.72,72.612,0.424
107.76,68.927,0.195
107.79,64.435,0.057
107.82,59.767,0.023
107.85,55.696,-0.046
107.89,51.871,0.023
107.92,48.186,0.034
107.95,44.185,-0.137
107.98,39.973,-0.195
108.02,36.324,-0.034
108.05,33.411,0.046
108.08,30.428,-0.092
108.11,27.164,-0.229
108.15,23.97,-0.252
108.18,20.636,-0.344
108.21,16.916,-0.515
108.24,12.494,-0.699
108.28,7.581,-0.756
108.31,2.632,-0.733
108.34,-1.825,-0.619
108.37,-5.44,-0.412
108.41,-8.353,-0.298
108.44,-11.371,-0.389
108.47,-14.494,-0.745
108.5,-18.811,-0.905
108.54,-23.128,-0.905
108.57,-27.199,-0.997
108.6,-31.165,-1.008
108.63,-34.744,-0.928
108.67,-37.973,-0.894
108.7,-41.026,-0.905
108.73,-44.08,-0.985
108.77,-47.133,-1.088
108.8,-49.94,-1.077
108.83,-52.994,-1.283
108.86,-56.889,-1.546
108.9,-60.89,-1.546
108.93,-64.575,-1.512
108.96,-68.05,-1.604
108.99,-71.629,-1.546
109.03,-74.858,-1.535
109.06,-77.771,-1.581
109.09,-80.824,-1.638
109.12,-84.123,-1.776
109.16,-87.563,-2.039
109.19,-91.563,-2.154
109.22,-95.67,-2.222
109.25,-99.881,-2.257
109.29,-103.496,-2.142
109.32,-106.163,-2.085
109.35,-108.9,-2.142
109.38,-111.919,-2.291
109.42,-115.182,-2.577
109.45,-119.464,-2.6
109.48,-123.43,-2.692
109.51,-127.431,-2.795
109.55,-130.975,-2.612
109.58,-133.853,-2.555
109.61,-136.24,-2.486
109.64,-139.363,-2.898
109.68,-143.539,-3.116
109.71,-148.312,-3.288
109.74,-152.875,-3.185
109.77,-155.121,-2.784
109.81,-155.998,-2.451
109.84,-156.384,-2.52
109.87,-159.262,-3.414
109.9,-164.281,-3.712
109.94,-168.597,-3.311
109.97,-171.054,-3.414
110.0,-174.107,-3.608
110.03,-176.95,-3.505
110.07,-179.477,-3.631
110.1,-182.425,-3.666
110.13,-185.303,-3.643
110.17,-188.567,-3.574
110.2,-190.883,-3.803
110.23,-194.392,-4.032
110.26,-197.867,-3.929
110.3,-200.674,-3.918
110.33,-203.026,-3.883
110.36,-204.851,-3.792
110.39,-206.535,-3.689
110.43,-207.974,-3.723
110.46,-209.869,-3.815
110.49,-211.905,-4.009
110.52,-214.116,-4.204
110.56,-216.783,-4.17
110.59,-218.994,-4.055
110.62,-220.573,-4.078
110.65,-222.504,-4.055
110.69,-223.732,-4.17
110.72,-225.101,-4.674
110.75,-228.47,-4.788
110.78,-231.277,-4.823
110.82,-234.647,-4.869
110.85,-237.173,-4.605
110.88,-238.683,-4.353
110.91,-239.455,-4.296
110.95,-240.227,-4.445
110.98,-241.946,-4.502
111.01,-243.947,-4.559
111.04,-245.877,-4.811
111.08,-247.737,-5.109
111.11,-249.176,-5.212
111.14,-250.72,-5.396
111.17,-253.036,-5.384
111.21,-255.704,-5.396
111.24,-257.739,-5.648
111.27,-259.283,-5.785
111.3,-260.442,-5.888
111.34,-262.021,-6.129
111.37,-263.881,-6.404
111.4,-266.338,-6.22
111.43,-267.039,-6.266
111.47,-268.794,-6.61
111.5,-271.391,-6.427
111.53,-272.83,-6.449
111.56,-273.953,-6.747
111.6,-275.778,-6.85
111.63,-277.849,-6.633
111.66,-278.516,-6.484
111.7,-278.796,-6.69
111.73,-280.2,-6.461
111.76,-280.937,-6.438
111.79,-282.166,-7.045
111.83,-284.341,-6.954
111.86,-284.973,-6.793
111.89,-285.464,-7.354
111.92,-287.289,-7.206
111.96,-288.167,-7.045
111.99,-289.606,-6.77
112.02,-290.273,-6.644
112.05,-290.939,-7.309
112.09,-292.448,-7.446
112.12,-293.221,-7.366
112.15,-294.028,-7.423
112.18,-294.975,-7.251
112.22,-295.186,-7.171
112.25,-295.467,-7.183
112.28,-296.169,-6.942
112.31,-296.695,-7.102
112.35,-297.713,-7.183
112.38,-298.134,-7.24
112.41,-298.941,-7.251
112.44,-299.397,-7.217
112.48,-299.503,-7.412
112.51,-300.45,-6.885
112.54,-300.661,-6.587
112.57,-300.38,-6.999
112.61,-301.047,-7.068
112.64,-300.555,-7.045
112.67,-299.011,-7.171
112.7,-299.608,-6.896
112.74,-299.854,-6.381
112.77,-298.415,-6.358
112.8,-297.186,-6.449
112.83,-296.204,-6.667
112.87,-296.169,-6.839
112.9,-295.923,-6.759
112.93,-295.151,-6.621
112.96,-294.659,-6.243
113.0,-293.221,-5.923
113.03,-291.255,-5.842
113.06,-290.237,-5.842
113.09,-289.676,-5.991
113.13,-289.044,-6.175
113.16,-288.763,-6.026
113.19,-287.465,-5.67
113.23,-284.622,-5.625
113.26,-282.727,-5.476
113.29,-281.148,-5.178
113.32,-279.253,-5.373
113.36,-278.516,-5.636
113.39,-277.603,-5.522
113.42,-275.848,-5.602
113.45,-274.796,-5.567
113.49,-272.795,-5.418
113.52,-271.848,-5.166
113.55,-270.198,-5.029
113.58,-268.689,-5.201
113.62,-267.531,-5.075
113.65,-265.636,-5.086
113.68,-264.864,-5.052
113.71,-263.67,-4.823
113.75,-262.021,-4.307
113.78,-259.073,-4.101
113.81,-255.879,-4.273
113.84,-253.352,-4.513
113.88,-252.44,-4.41
113.91,-252.089,-4.193
113.94,-251.141,-4.479
113.97,-250.65,-4.124
114.01,-247.702,-3.391
114.04,-243.771,-3.345
114.07,-240.858,-3.631
114.1,-238.718,-3.769
114.14,-236.928,-3.712
114.17,-235.384,-3.838
114.2,-234.471,-3.861
114.23,-232.857,-3.723
114.27,-230.891,-3.517
114.3,-228.365,-3.563
114.33,-226.645,-3.563
114.36,-225.101,-3.471
114.4,-222.855,-3.23
114.43,-219.977,-3.311
114.46,-218.573,-3.505
114.49,-217.029,-3.23
114.53,-214.221,-2.921
114.56,-211.308,-2.761
114.59,-208.009,-2.944
114.63,-206.184,-2.887
114.66,-204.921,-2.818
114.69,-203.482,-2.784
114.72,-200.85,-2.726
114.76,-197.972,-2.509
114.79,-194.708,-2.325
114.82,-191.725,-2.268
114.85,-188.286,-2.245
114.89,-185.513,-2.325
114.92,-183.443,-2.577
114.95,-181.898,-2.623
114.98,-179.617,-2.348
115.02,-176.74,-2.062
115.05,-173.125,-1.925
115.08,-169.931,-1.799
115.11,-166.632,-1.466
115.15,-162.982,-1.512
115.18,-159.753,-1.844
115.21,-157.753,-1.959
115.24,-155.717,-1.604
115.28,-152.313,-1.558
115.31,-148.418,-1.306
115.34,-144.171,-1.375
115.37,-141.153,-1.42
115.41,-138.942,-1.409
115.44,-137.047,-1.558
115.47,-134.45,-1.352
115.5,-131.432,-1.02
115.54,-127.466,-0.974
115.57,-124.132,-1.054
115.6,-120.482,-0.733
115.63,-115.919,-0.504
115.67,-111.357,-0.653
115.7,-107.812,-0.882
115.73,-105.005,-0.836
115.76,-102.057,-0.664
115.8,-98.618,-0.573
115.83,-95.003,-0.321
115.86,-90.826,0.034
115.89,-85.913,0.034
115.93,-81.596,-0.16
115.96,-78.157,-0.16
115.99,-74.998,-0.172
116.02,-72.261,-0.183
116.06,-69.313,-0.057
116.09,-66.014,0.137
116.12,-62.434,0.172
116.16,-58.925,0.137
116.19,-55.521,0.275
116.22,-51.906,0.401
116.25,-48.151,0.447
116.29,-44.29,0.55
116.32,-40.114,0.676
116.35,-35.867,0.825
116.38,-31.445,0.905
116.42,-27.094,0.882
116.45,-23.163,0.882
116.48,-19.478,0.916
116.51,-16.109,0.928
116.55,-12.95,0.997
116.58,-9.37,1.065
116.61,-5.615,1.1
116.64,-2.071,1.031
