Trigger_Date,2023/06/23
Trigger_Time,T 11:05:47.147 PDT
Samples_Per_Cycle,512
Microseconds_Per_Sample,32.556
Time (ms),Voltage (V),Current (A)
-16.67,0.597,-0.378
-16.64,-2.597,-0.344
-16.6,-5.931,-0.515
-16.57,-10.037,-0.607
-16.54,-13.898,-0.722
-16.51,-18.004,-1.008
-16.47,-22.636,-0.882
-16.44,-26.286,-0.79
-16.41,-29.866,-0.848
-16.38,-33.27,-0.928
-16.34,-36.85,-0.928
-16.31,-40.254,-0.985
-16.28,-43.764,-1.088
-16.25,-47.273,-1.237
-16.21,-50.888,-1.157
-16.18,-53.625,-1.042
-16.15,-56.468,-1.237
-16.12,-59.872,-1.386
-16.08,-63.382,-1.478
-16.05,-67.032,-1.546
-16.02,-70.506,-1.524
-15.99,-73.875,-1.673
-15.95,-77.49,-1.753
-15.92,-80.824,-1.764
-15.89,-84.474,-1.833
-15.85,-88.054,-1.936
-15.82,-91.634,-2.028
-15.79,-95.319,-2.142
-15.76,-99.53,-2.325
-15.72,-103.32,-2.142
-15.69,-105.952,-1.89
-15.66,-108.409,-2.051
-15.63,-111.182,-2.314
-15.59,-114.656,-2.429
-15.56,-118.411,-2.612
-15.53,-122.798,-2.761
-15.5,-127.325,-2.658
-15.46,-130.519,-2.52
-15.43,-133.186,-2.463
-15.4,-135.503,-2.52
-15.37,-138.521,-2.738
-15.33,-141.96,-2.921
-15.3,-145.715,-3.013
-15.27,-149.751,-3.07
-15.24,-153.928,-3.059
-15.2,-156.525,-2.83
-15.17,-158.209,-2.726
-15.14,-160.104,-2.944
-15.11,-162.701,-3.265
-15.07,-165.755,-3.15
-15.04,-168.352,-3.46
-15.01,-172.142,-3.803
-14.98,-175.967,-3.815
-14.94,-179.863,-3.643
-14.91,-182.741,-3.62
-14.88,-186.005,-3.46
-14.85,-188.005,-3.402
-14.81,-190.286,-3.654
-14.78,-193.269,-3.815
-14.75,-196.638,-4.032
-14.72,-200.253,-4.021
-14.68,-202.956,-3.826
-14.65,-204.675,-3.689
-14.62,-205.623,-3.792
-14.59,-207.693,-3.735
-14.55,-209.273,-3.746
-14.52,-211.449,-4.032
-14.49,-213.87,-4.101
-14.45,-215.836,-4.158
-14.42,-218.047,-4.078
-14.39,-219.099,-4.17
-14.36,-220.258,-4.422
-14.32,-222.925,-4.433
-14.29,-225.592,-4.41
-14.26,-227.733,-4.72
-14.23,-230.681,-4.8
-14.19,-233.664,-4.571
-14.16,-235.419,-4.479
-14.13,-236.893,-4.548
-14.1,-238.612,-4.319
-14.06,-239.56,-4.365
-14.03,-241.455,-4.559
-14.0,-243.21,-4.582
-13.97,-244.614,-4.823
-13.93,-247.456,-4.903
-13.9,-249.316,-4.811
-13.87,-250.124,-5.189
-13.84,-251.492,-5.235
-13.8,-253.423,-5.315
-13.77,-255.704,-5.739
-13.74,-258.195,-5.98
-13.71,-260.687,-5.751
-13.67,-262.267,-5.854
-13.64,-262.898,-5.751
-13.61,-262.617,-5.728
-13.58,-263.881,-5.991
-13.54,-266.653,-6.152
-13.51,-269.005,-6.255
-13.48,-270.83,-6.667
-13.45,-273.778,-6.85
-13.41,-275.638,-6.724
-13.38,-276.129,-6.449
-13.35,-276.971,-6.232
-13.32,-277.638,-6.186
-13.28,-278.41,-6.323
-13.25,-279.428,-6.323
-13.22,-280.2,-6.644
-13.19,-281.639,-7.091
-13.15,-284.306,-6.931
-13.12,-285.114,-6.942
-13.09,-286.026,-7.584
-13.05,-287.816,-7.274
-13.02,-288.237,-7.343
-12.99,-290.132,-7.4
-12.96,-291.887,-7.171
-12.92,-293.185,-7.274
-12.89,-294.379,-7.515
-12.86,-295.396,-7.343
-12.83,-295.291,-7.343
-12.79,-295.782,-7.24
-12.76,-295.747,-6.999
-12.73,-295.923,-7.022
-12.7,-296.484,-7.183
-12.66,-297.537,-7.022
-12.63,-297.888,-7.102
-12.6,-298.976,-7.297
-12.57,-300.345,-6.976
-12.53,-300.731,-6.999
-12.5,-300.661,-7.206
-12.47,-300.485,-7.114
-12.44,-299.818,-6.942
-12.4,-298.169,-6.873
-12.37,-298.625,-7.435
-12.34,-300.45,-7.16
-12.31,-300.696,-6.885
-12.27,-300.064,-6.805
-12.24,-298.625,-6.427
-12.21,-297.572,-6.61
-12.18,-297.643,-6.896
-12.14,-297.327,-6.954
-12.11,-296.555,-6.793
-12.08,-295.712,-6.564
-12.05,-293.958,-6.484
-12.01,-292.589,-6.358
-11.98,-291.676,-5.968
-11.95,-290.448,-6.026
-11.92,-290.553,-6.094
-11.88,-289.641,-5.957
-11.85,-288.097,-5.991
-11.82,-287.079,-5.842
-11.79,-285.605,-5.464
-11.75,-283.289,-5.247
-11.72,-279.955,-5.441
-11.69,-278.41,-5.602
-11.66,-278.796,-5.407
-11.62,-278.516,-5.327
-11.59,-276.024,-5.59
-11.56,-274.164,-5.625
-11.52,-272.725,-5.109
-11.49,-270.584,-5.04
-11.46,-269.742,-4.949
-11.43,-268.338,-4.788
-11.39,-267.004,-4.811
-11.36,-266.443,-4.582
-11.33,-264.478,-4.582
-11.3,-262.161,-4.834
-11.26,-260.336,-4.559
-11.23,-258.301,-4.216
-11.2,-256.055,-4.422
-11.17,-254.861,-4.548
-11.13,-254.546,-4.067
-11.1,-252.44,-3.838
-11.07,-251.212,-4.239
-11.04,-250.615,-3.861
-11.0,-247.948,-3.356
-10.97,-244.473,-3.162
-10.94,-241.174,-3.253
-10.91,-238.893,-3.883
-10.87,-239.069,-4.101
-10.84,-238.612,-3.815
-10.81,-237.419,-3.689
-10.78,-235.208,-3.505
-10.74,-231.804,-3.001
-10.71,-227.628,-2.807
-10.68,-223.978,-3.208
-10.65,-222.223,-3.345
-10.61,-220.959,-3.196
-10.58,-219.45,-3.253
-10.55,-217.906,-3.334
-10.52,-215.871,-3.23
-10.48,-213.589,-2.978
-10.45,-210.712,-2.967
-10.42,-208.22,-3.196
-10.39,-206.851,-3.219
-10.35,-206.57,-3.059
-10.32,-205.728,-2.784
-10.29,-202.815,-2.692
-10.26,-199.551,-2.394
-10.22,-195.796,-2.108
-10.19,-191.83,-2.234
-10.16,-188.531,-2.28
-10.12,-186.005,-2.291
-10.09,-183.723,-2.532
-10.06,-181.969,-2.623
-10.03,-180.319,-2.291
-9.99,-177.406,-2.016
-9.96,-173.616,-1.879
-9.93,-169.966,-1.684
-9.9,-166.246,-1.65
-9.86,-162.947,-1.604
-9.83,-160.069,-1.81
-9.8,-157.788,-1.982
-9.77,-155.542,-1.615
-9.73,-152.524,-1.352
-9.7,-149.049,-1.409
-9.67,-145.435,-1.1
-9.64,-141.258,-1.26
-9.6,-138.626,-1.535
-9.57,-136.906,-1.512
-9.54,-134.169,-1.203
-9.51,-130.273,-0.722
-9.47,-126.097,-0.985
-9.44,-123.5,-1.294
-9.41,-121.254,-1.111
-9.38,-118.06,-0.836
-9.34,-114.481,-0.813
-9.31,-111.006,-0.768
-9.28,-107.742,-0.607
-9.25,-104.163,-0.435
-9.21,-100.337,-0.389
-9.18,-96.126,-0.229
-9.15,-91.458,-0.092
-9.12,-87.212,-0.115
-9.08,-83.737,-0.16
-9.05,-79.912,-0.057
-9.02,-75.56,0.034
-8.99,-71.454,0.115
-8.95,-67.558,0.057
-8.92,-64.365,0.057
-8.89,-61.171,0.206
-8.86,-57.486,0.252
-8.82,-53.836,0.275
-8.79,-50.186,0.367
-8.76,-46.677,0.401
-8.73,-43.343,0.412
-8.69,-39.938,0.538
-8.66,-36.253,0.664
-8.63,-32.253,0.699
-8.59,-28.708,0.664
-8.56,-25.514,0.699
-8.53,-22.461,0.836
-8.5,-18.916,0.985
-8.46,-15.231,1.1
-8.43,-11.266,1.191
-8.4,-7.159,1.191
-8.37,-3.439,1.065
-8.33,-0.211,1.008
-8.3,3.439,1.214
-8.27,7.616,1.352
-8.24,12.354,1.386
-8.2,16.249,1.249
-8.17,19.057,1.088
-8.14,21.829,1.065
-8.11,24.707,1.283
-8.07,28.041,1.272
-8.04,31.2,1.352
-8.01,34.744,1.615
-7.98,38.745,1.741
-7.94,42.325,1.524
-7.91,45.203,1.386
-7.88,48.045,1.661
-7.85,51.59,1.89
-7.81,55.31,1.947
-7.78,59.03,1.982
-7.75,62.82,1.97
-7.72,66.541,1.97
-7.68,70.19,2.073
-7.65,74.086,2.142
-7.62,77.841,2.199
-7.59,81.526,2.211
-7.55,85.141,2.199
-7.52,88.756,2.291
-7.49,92.616,2.394
-7.46,96.477,2.383
-7.42,99.635,2.406
-7.39,102.689,2.429
-7.36,105.777,2.383
-7.33,108.655,2.451
-7.29,111.533,2.566
-7.26,114.796,2.692
-7.23,118.622,2.83
-7.19,122.517,2.978
-7.16,126.694,2.956
-7.13,129.993,2.944
-7.1,132.835,2.91
-7.06,135.924,2.921
-7.03,139.714,3.368
-7.0,144.206,3.597
-6.97,148.418,3.448
-6.93,151.646,3.345
-6.9,154.735,3.345
-6.87,156.525,2.864
-6.84,157.367,2.875
-6.8,158.525,3.15
-6.77,160.666,3.379
-6.74,164.211,3.861
-6.71,168.141,3.735
-6.67,171.931,3.861
-6.64,176.424,4.273
-6.61,180.249,4.044
-6.58,182.46,3.574
-6.54,183.829,3.666
-6.51,186.215,4.009
-6.48,189.163,4.17
-6.45,192.989,4.365
-6.41,197.305,4.433
-6.38,200.499,4.502
-6.35,203.236,4.353
-6.32,205.447,4.078
-6.28,207.448,3.861
-6.25,208.536,3.918
-6.22,209.764,4.204
-6.19,211.94,4.387
-6.15,214.502,4.513
-6.12,217.52,4.502
-6.09,220.117,4.387
-6.06,222.047,4.09
-6.02,222.574,3.941
-5.99,222.679,4.376
-5.96,225.031,4.788
-5.93,228.47,4.949
-5.89,231.418,5.155
-5.86,234.822,5.144
-5.83,236.963,4.926
-5.79,238.542,4.674
-5.76,239.595,4.387
-5.73,240.929,4.72
-5.7,243.596,5.166
-5.66,246.439,5.407
-5.63,249.597,5.327
-5.6,251.562,5.235
-5.57,252.791,5.201
-5.53,253.703,4.754
-5.5,253.668,4.502
-5.47,253.879,5.029
-5.44,255.809,5.338
-5.4,257.599,5.407
-5.37,260.196,5.487
-5.34,262.898,5.579
-5.31,265.425,5.487
-5.27,266.197,5.235
-5.24,266.829,5.189
-5.21,267.285,5.476
-5.18,268.549,5.751
-5.14,270.303,5.945
-5.11,273.462,6.037
-5.08,274.655,6.369
-5.05,276.585,6.495
-5.01,278.551,5.648
-4.98,277.673,5.636
-4.95,277.673,6.197
-4.92,279.358,6.003
-4.88,280.025,6.152
-4.85,282.06,6.633
-4.82,283.955,6.575
-4.79,285.57,6.747
-4.75,286.763,6.736
-4.72,287.816,6.862
-4.69,288.834,6.816
-4.66,290.097,7.034
-4.62,291.782,7.057
-4.59,293.466,7.228
-4.56,295.361,7.045
-4.53,296.204,7.068
-4.49,297.537,6.793
-4.46,297.537,6.598
-4.43,296.765,6.633
-4.4,296.204,6.53
-4.36,296.484,6.679
-4.33,297.432,6.999
-4.3,299.011,6.61
-4.26,298.871,6.289
-4.23,298.485,6.667
-4.2,298.976,6.701
-4.17,298.976,6.553
-4.13,299.573,6.621
-4.1,300.52,6.495
-4.07,300.836,6.713
-4.04,301.714,6.679
-4.0,301.468,6.919
-3.97,301.608,6.839
-3.94,300.941,6.289
-3.91,299.889,6.175
-3.87,299.081,5.968
-3.84,297.958,6.129
-3.81,297.116,6.266
-3.78,296.87,6.117
-3.74,296.274,5.808
-3.71,295.01,5.808
-3.68,294.063,5.648
-3.65,292.484,5.476
-3.61,291.396,5.373
-3.58,289.851,5.67
-3.55,289.922,5.67
-3.52,289.395,5.396
-3.48,287.781,5.373
-3.45,285.815,5.235
-3.42,283.815,4.983
-3.39,281.358,4.926
-3.35,278.902,5.292
-3.32,278.41,5.396
-3.29,278.796,5.121
-3.26,278.691,4.892
-3.22,277.428,4.628
-3.19,274.831,4.342
-3.16,271.567,4.193
-3.13,269.145,4.319
-3.09,267.776,4.399
-3.06,266.513,4.628
-3.03,266.127,4.651
-3.0,265.355,4.548
-2.96,264.056,4.365
-2.93,262.196,4.113
-2.9,259.669,4.078
-2.86,258.301,4.101
-2.83,256.651,4.135
-2.8,254.932,4.135
-2.77,251.633,3.803
-2.73,248.334,3.677
-2.7,246.228,3.597
-2.67,242.859,3.712
-2.64,240.227,3.929
-2.6,239.63,4.067
-2.57,239.209,4.193
-2.54,238.718,4.113
-2.51,237.77,3.872
-2.47,236.682,4.124
-2.44,236.787,4.135
-2.41,235.208,3.78
-2.38,232.857,3.414
-2.34,229.768,3.253
-2.31,226.505,3.356
-2.28,224.153,3.208
-2.25,221.346,3.196
-2.21,219.099,3.265
-2.18,216.643,3.196
-2.15,214.186,2.956
-2.12,210.817,2.83
-2.08,207.623,3.024
-2.05,205.763,2.967
-2.02,203.868,3.15
-1.99,202.359,3.242
-1.95,199.902,3.253
-1.92,197.902,3.036
-1.89,195.235,2.841
-1.86,192.603,2.784
-1.82,189.76,2.577
-1.79,187.128,2.532
-1.76,184.706,2.669
-1.73,182.671,2.681
-1.69,180.284,2.486
-1.66,177.301,2.211
-1.63,173.546,2.131
-1.6,169.826,2.142
-1.56,166.281,1.89
-1.53,162.245,2.051
-1.5,159.648,2.348
-1.47,157.823,2.28
-1.43,155.367,2.188
-1.4,152.454,1.936
-1.37,149.26,1.764
-1.33,145.68,1.753
-1.3,141.714,1.478
-1.27,138.31,1.524
-1.24,135.818,1.902
-1.2,133.572,1.764
-1.17,132.063,1.787
-1.14,130.695,1.982
-1.11,129.221,1.787
-1.07,125.711,0.928
-1.04,119.815,0.195
-1.01,113.428,0.55
-0.98,109.111,1.02
-0.94,105.882,0.928
-0.91,102.232,0.756
-0.88,98.337,0.802
-0.85,94.441,0.619
-0.81,89.949,0.504
-0.78,85.808,0.515
-0.75,82.018,0.619
-0.72,78.859,0.596
-0.68,75.49,0.55
-0.65,72.437,0.55
-0.62,69.278,0.412
-0.59,65.698,0.298
-0.55,62.119,0.241
-0.52,58.539,0.206
-0.49,54.994,0.195
-0.46,51.59,0.172
-0.42,48.361,0.115
-0.39,44.922,0.023
-0.36,41.202,-0.08
-0.33,37.341,-0.183
-0.29,33.27,-0.263
-0.26,29.199,-0.309
-0.23,25.374,-0.286
-0.2,21.899,-0.298
-0.16,18.53,-0.321
-0.13,15.266,-0.367
-0.1,11.722,-0.447
-0.07,7.826,-0.527
-0.03,3.825,-0.504
0.0,0.421,-0.344
0.03,-2.808,-0.389
0.07,-6.387,-0.596
0.1,-10.283,-0.493
0.13,-12.845,-0.47
0.16,-15.652,-0.687
0.2,-19.478,-0.79
0.23,-23.373,-0.928
0.26,-27.831,-1.1
0.29,-32.182,-1.134
0.33,-36.148,-0.997
0.36,-39.552,-0.985
0.39,-42.711,-0.985
0.42,-45.799,-1.008
0.46,-48.853,-1.134
0.49,-51.941,-1.26
0.52,-55.345,-1.26
0.55,-58.574,-1.363
0.59,-61.732,-1.501
0.62,-65.207,-1.558
0.65,-68.857,-1.615
0.68,-72.823,-1.684
0.72,-76.367,-1.753
0.75,-80.052,-1.821
0.78,-83.842,-1.821
0.81,-87.492,-2.028
0.85,-91.563,-2.154
0.88,-95.529,-2.165
0.91,-99.214,-2.314
0.94,-103.25,-2.314
0.98,-106.689,-2.257
1.01,-109.743,-2.245
1.04,-112.936,-2.268
1.07,-116.27,-2.463
1.11,-119.604,-2.623
1.14,-123.57,-2.749
1.17,-127.676,-2.761
1.2,-131.081,-2.704
1.24,-133.958,-2.555
1.27,-136.626,-2.532
1.3,-139.433,-2.784
1.33,-143.188,-3.036
1.37,-147.26,-3.036
1.4,-151.12,-3.242
1.43,-155.542,-3.414
1.47,-159.157,-3.185
1.5,-161.824,-2.875
1.53,-162.982,-2.726
1.56,-163.438,-2.887
1.6,-165.228,-3.047
1.63,-168.036,-3.551
1.66,-171.931,-4.009
1.69,-175.897,-3.815
1.73,-178.845,-3.608
1.76,-181.548,-3.528
1.79,-183.513,-3.54
1.82,-185.864,-3.689
1.86,-189.339,-3.987
1.89,-193.761,-4.204
1.92,-197.656,-4.319
1.95,-201.06,-4.273
1.99,-204.149,-3.987
2.02,-205.869,-3.838
2.05,-207.307,-3.643
2.08,-207.764,-3.643
2.12,-209.483,-3.78
2.15,-210.887,-4.147
2.18,-213.554,-4.445
2.21,-216.713,-4.216
2.25,-219.099,-4.067
2.28,-220.328,-4.044
2.31,-220.538,-4.181
2.34,-221.661,-4.319
2.38,-223.697,-4.685
2.41,-227.592,-4.972
2.44,-231.313,-4.983
2.47,-234.506,-4.88
2.51,-236.963,-4.685
2.54,-238.998,-4.513
2.57,-239.876,-4.479
2.6,-241.139,-4.582
2.64,-243.069,-4.834
2.67,-245.877,-5.006
2.7,-248.018,-4.857
2.73,-248.895,-4.88
2.77,-250.194,-5.006
2.8,-251.668,-4.869
2.83,-252.159,-5.006
2.86,-253.387,-5.258
2.9,-255.388,-5.384
2.93,-257.318,-5.407
2.96,-258.546,-5.67
3.0,-260.547,-5.842
3.03,-262.337,-5.831
3.06,-263.811,-6.129
3.09,-266.408,-6.06
3.13,-267.671,-6.06
3.16,-268.549,-6.518
3.19,-270.409,-6.736
3.22,-272.093,-6.839
3.26,-274.269,-7.022
3.29,-276.375,-7.022
3.32,-277.744,-6.976
3.35,-278.937,-6.885
3.39,-280.411,-6.541
3.42,-281.464,-6.679
3.45,-283.113,-6.908
3.48,-284.552,-6.965
3.52,-285.605,-7.068
3.55,-286.272,-7.194
3.58,-287.711,-6.85
3.61,-287.956,-6.713
3.65,-288.518,-7.114
3.68,-289.711,-6.976
3.71,-290.308,-7.24
3.74,-292.659,-7.194
3.78,-293.817,-6.873
3.81,-294.414,-7.171
3.84,-295.326,-7.16
3.87,-295.818,-7.045
3.91,-295.958,-6.759
3.94,-295.186,-6.988
3.97,-296.449,-7.148
4.0,-297.256,-6.942
4.04,-297.151,-7.274
4.07,-297.362,-7.572
4.1,-298.415,-7.412
4.13,-299.046,-7.32
4.17,-299.573,-7.354
4.2,-300.134,-7.034
4.23,-299.854,-7.251
4.26,-299.748,-7.549
4.3,-300.029,-7.286
4.33,-299.432,-6.896
4.36,-299.573,-7.171
4.4,-299.538,-7.091
4.43,-297.818,-6.53
4.46,-296.274,-6.69
4.49,-297.362,-7.022
4.53,-298.695,-6.679
4.56,-297.397,-6.461
4.59,-295.151,-6.724
4.62,-293.993,-6.701
4.66,-293.782,-6.22
4.69,-293.221,-5.991
4.72,-292.589,-6.026
4.75,-291.501,-6.003
4.79,-289.992,-5.968
4.82,-288.658,-6.014
4.85,-287.044,-5.98
4.88,-284.903,-5.831
4.92,-283.289,-5.567
4.95,-281.393,-5.43
4.98,-280.095,-5.579
5.01,-279.393,-5.636
5.05,-278.375,-5.59
5.08,-276.27,-5.705
5.11,-274.094,-5.762
5.14,-271.953,-5.59
5.18,-271.111,-5.224
5.21,-269.987,-5.052
5.24,-268.584,-5.178
5.27,-267.566,-5.109
5.31,-266.969,-4.743
5.34,-265.144,-4.731
5.37,-263.425,-4.731
5.4,-260.863,-4.273
5.44,-257.845,-4.147
5.47,-256.02,-4.284
5.5,-254.23,-4.468
5.53,-253.458,-4.479
5.57,-252.791,-4.113
5.6,-250.755,-3.803
5.63,-248.088,-4.044
5.66,-246.895,-3.929
5.7,-244.965,-3.712
5.73,-242.613,-3.769
5.76,-240.472,-3.792
5.79,-238.297,-3.815
5.83,-236.436,-3.952
5.86,-235.313,-3.941
5.89,-233.313,-3.906
5.93,-231.874,-3.391
5.96,-228.926,-2.99
5.99,-226.294,-3.127
6.02,-223.978,-3.116
6.06,-221.346,-3.276
6.09,-219.836,-3.391
6.12,-218.678,-3.517
6.15,-218.047,-3.322
6.19,-215.414,-3.024
6.22,-212.221,-2.864
6.25,-209.483,-2.761
6.28,-206.43,-2.875
6.32,-203.938,-3.024
6.35,-202.885,-2.875
6.38,-201.341,-2.715
6.41,-198.253,-2.589
6.45,-194.673,-2.325
6.48,-191.093,-2.257
6.51,-188.04,-2.371
6.54,-185.513,-2.394
6.58,-183.478,-2.589
6.61,-181.793,-2.692
6.64,-180.074,-2.429
6.67,-177.371,-1.993
6.71,-172.914,-1.993
6.74,-169.229,-1.936
6.77,-165.965,-1.741
6.8,-163.087,-1.718
6.84,-160.631,-1.913
6.87,-158.806,-1.821
6.9,-155.753,-1.455
6.93,-151.962,-1.352
6.97,-148.137,-1.214
7.0,-143.539,-0.951
7.03,-139.644,-1.34
7.06,-138.135,-1.81
7.1,-137.468,-1.982
7.13,-135.924,-1.466
7.16,-132.414,-0.836
7.19,-128.027,-0.985
7.23,-124.834,-1.157
7.26,-121.429,-0.939
7.29,-117.113,-0.642
7.33,-112.936,-0.596
7.36,-109.216,-0.813
7.39,-106.198,-0.825
7.42,-102.934,-0.63
7.46,-99.284,-0.481
7.49,-95.213,-0.252
7.52,-90.475,-0.115
7.55,-85.878,-0.115
7.59,-81.947,-0.195
7.62,-78.789,-0.252
7.65,-76.227,-0.206
7.68,-73.454,-0.08
7.72,-70.05,0.092
7.75,-66.154,0.252
7.78,-61.838,0.367
7.81,-57.661,0.389
7.85,-53.766,0.344
7.88,-50.256,0.344
7.91,-46.992,0.412
7.94,-43.658,0.424
7.98,-40.535,0.412
8.01,-37.447,0.561
8.04,-33.937,0.733
8.07,-30.077,0.871
8.11,-26.146,0.894
8.14,-22.321,0.951
8.17,-18.53,1.065
8.2,-14.67,1.134
8.24,-10.739,1.168
8.27,-6.493,1.226
8.3,-2.281,1.18
8.33,1.334,1.031
8.37,4.387,0.997
8.4,7.826,1.111
8.43,11.371,1.283
8.46,14.459,1.272
8.5,17.758,1.111
8.53,20.882,1.34
8.56,24.742,1.524
8.59,28.322,1.409
8.63,31.375,1.363
8.66,34.499,1.478
8.69,37.798,1.535
8.73,41.237,1.661
8.76,44.922,1.776
8.79,48.677,1.925
8.82,52.397,1.959
8.86,56.223,1.902
8.89,59.732,1.925
8.92,63.347,2.039
8.95,67.207,2.062
8.99,70.927,2.051
9.02,74.297,2.062
9.05,77.736,2.165
9.08,81.421,2.154
9.12,84.825,2.131
9.15,87.914,2.268
9.18,91.493,2.451
9.21,95.494,2.486
9.25,99.249,2.577
9.28,102.618,2.543
9.31,105.426,2.555
9.34,108.795,2.532
9.38,111.919,2.566
9.41,115.218,2.726
9.44,118.973,2.852
9.47,122.658,2.956
9.51,126.027,3.116
9.54,129.536,3.093
9.57,132.66,3.001
9.6,135.994,2.967
9.64,139.082,3.116
9.67,142.346,3.299
9.7,145.856,3.253
9.73,149.12,3.482
9.77,152.91,3.677
9.8,156.068,3.219
9.83,158.806,3.288
9.86,161.473,3.379
9.9,164.421,3.677
9.93,169.019,4.009
9.96,173.335,3.735
9.99,176.108,3.414
10.03,178.319,3.379
10.06,179.933,3.299
10.09,180.705,3.402
10.12,182.811,3.551
10.16,185.233,3.803
10.19,188.953,4.113
10.22,193.199,4.227
10.26,197.025,4.307
10.29,200.323,4.273
10.32,202.991,4.158
10.35,204.886,3.998
10.39,206.29,3.998
10.42,208.115,3.987
10.45,210.08,4.147
10.48,212.466,4.33
10.52,214.783,4.399
10.55,217.204,4.365
10.58,219.029,4.387
10.61,220.819,4.239
10.65,221.872,4.078
10.68,223.276,4.433
10.71,226.399,4.857
10.74,230.119,4.892
10.78,233.067,4.811
10.81,235.735,5.018
10.84,238.051,4.697
10.87,238.121,4.365
10.91,238.191,4.468
10.94,239.841,4.869
10.97,242.719,5.224
11.0,246.088,5.281
11.04,248.895,4.972
11.07,250.615,4.972
11.1,252.58,4.788
11.13,252.686,4.284
11.17,251.668,4.399
11.2,252.124,4.914
11.23,254.37,5.224
11.26,257.704,5.258
11.3,260.757,5.396
11.33,264.372,5.315
11.36,265.636,5.166
11.39,264.934,5.224
11.43,265.32,5.373
11.46,267.32,5.499
11.49,269.496,5.785
11.52,272.585,5.865
11.56,275.252,5.51
11.59,275.252,5.716
11.62,275.322,6.117
11.66,276.305,5.831
11.69,277.884,5.693
11.72,279.744,5.682
11.75,280.446,6.003
11.79,281.99,6.255
11.82,283.569,6.358
11.85,285.324,6.667
11.88,287.254,6.484
11.92,288.237,6.346
11.95,288.939,6.507
11.98,289.957,6.633
12.01,290.799,6.621
12.05,291.36,7.057
12.08,293.571,6.988
12.11,295.045,6.541
12.14,295.747,6.69
12.18,296.8,6.553
12.21,296.274,6.575
12.24,296.204,6.633
12.27,296.519,6.358
12.31,296.906,6.461
12.34,298.134,6.415
12.37,298.66,6.106
12.4,298.309,6.278
12.44,298.415,6.656
12.47,299.678,6.404
12.5,300.029,5.705
12.53,298.38,5.968
12.57,298.064,6.598
12.6,299.713,6.472
12.63,299.889,6.289
12.66,300.555,6.449
12.7,300.204,6.278
12.73,299.503,6.438
12.76,299.678,6.381
12.79,299.081,6.301
12.83,298.941,6.415
12.86,299.643,6.266
12.89,299.046,5.98
12.92,297.046,5.945
12.96,295.993,5.602
12.99,293.361,5.487
13.02,291.396,5.682
13.05,291.185,5.522
13.09,291.185,5.441
13.12,290.097,5.659
13.15,289.22,5.625
13.19,287.64,5.292
13.22,286.061,5.155
13.25,284.026,5.075
13.28,281.955,5.063
13.32,281.007,4.811
13.35,280.025,4.8
13.38,279.042,4.811
13.41,276.901,4.834
13.45,274.796,4.846
13.48,273.462,4.639
13.51,272.62,4.33
13.54,270.935,4.296
13.58,268.724,4.513
13.61,267.496,4.433
13.64,266.408,4.319
13.67,265.215,4.422
13.71,263.354,4.376
13.74,261.6,4.078
13.77,259.003,3.861
13.8,256.511,4.055
13.84,255.598,4.021
13.87,253.773,4.032
13.9,251.457,3.987
13.93,249.246,3.941
13.97,247.597,3.998
14.0,245.631,3.918
14.03,243.806,3.826
14.06,242.262,3.826
14.1,240.648,4.055
14.13,239.946,3.964
14.16,239.279,3.746
14.19,238.156,3.918
14.23,237.033,3.631
14.26,233.945,3.127
14.29,230.19,3.059
14.32,227.066,3.219
14.36,224.715,3.322
14.39,222.855,3.288
14.42,220.889,3.368
14.45,219.731,3.253
14.49,217.52,2.933
14.52,213.905,2.852
14.55,210.291,2.841
14.59,207.483,2.944
14.62,205.307,3.093
14.65,203.833,3.196
14.68,202.991,3.082
14.72,201.201,3.024
14.75,198.99,2.738
14.78,195.796,2.429
14.81,192.111,2.509
14.85,189.128,2.44
14.88,186.32,2.509
14.91,184.425,2.692
14.94,183.127,2.704
14.98,181.723,2.497
15.01,179.793,2.429
15.04,178.178,2.612
15.07,177.055,2.566
15.11,175.23,2.337
15.14,172.704,2.142
15.17,169.51,2.016
15.2,165.86,1.89
15.24,161.403,1.512
15.27,155.542,1.1
15.3,149.576,1.214
15.33,145.259,1.535
15.37,142.662,1.673
15.4,140.24,1.787
15.43,138.205,1.982
15.46,136.415,1.913
15.5,133.432,1.489
15.53,129.396,1.042
15.56,125.044,0.985
15.59,121.043,1.18
15.63,117.639,1.237
15.66,114.41,1.18
15.69,111.497,1.1
15.72,108.199,0.962
15.76,104.128,0.607
15.79,98.758,0.286
15.82,93.178,0.332
15.85,88.264,0.435
15.89,83.913,0.55
15.92,80.438,0.63
15.95,77.982,0.768
15.99,75.56,0.779
16.02,72.787,0.504
16.05,68.857,0.126
16.08,64.119,0.057
16.12,59.662,0.137
16.15,55.696,0.183
16.18,52.257,0.149
16.21,49.344,0.321
16.25,46.922,0.378
16.28,44.044,0.057
16.31,39.938,-0.367
16.34,35.025,-0.378
16.38,30.428,-0.321
16.41,26.427,-0.263
16.44,23.163,-0.172
16.47,20.425,-0.08
16.51,17.723,-0.218
16.54,14.6,-0.412
16.57,10.564,-0.619
16.6,5.861,-0.733
16.64,0.948,-0.722
16.67,-3.51,-0.607
16.7,-7.23,-0.447
16.73,-10.178,-0.229
16.77,-12.283,-0.183
16.8,-14.319,-0.447
16.83,-17.793,-0.664
16.86,-21.373,-0.722
16.9,-24.812,-0.779
16.93,-28.146,-0.882
16.96,-31.937,-1.008
16.99,-35.727,-1.111
17.03,-39.412,-1.077
17.06,-43.202,-1.272
17.09,-48.045,-1.73
17.12,-52.924,-1.569
17.16,-56.679,-1.226
17.19,-59.451,-1.272
17.22,-62.469,-1.443
17.25,-65.804,-1.375
17.29,-68.857,-1.546
17.32,-72.823,-1.821
17.35,-77.034,-1.913
17.38,-80.684,-1.821
17.42,-84.193,-1.73
17.45,-87.703,-1.867
17.48,-91.563,-2.028
17.52,-95.178,-2.016
17.55,-98.161,-1.844
17.58,-99.284,-1.386
17.61,-97.916,-0.836
17.65,-95.073,-0.596
17.68,-94.582,-1.661
17.71,-99.811,-3.288
17.74,-108.023,-3.505
17.78,-114.059,-2.623
17.81,-117.815,-2.589
17.84,-121.851,-2.738
17.87,-125.5,-2.555
17.91,-128.764,-2.635
17.94,-132.098,-2.761
17.97,-135.643,-2.681
18.0,-138.837,-2.921
18.04,-142.908,-3.082
18.07,-147.119,-3.116
18.1,-150.839,-3.288
18.13,-154.594,-3.059
18.17,-157.297,-3.024
18.2,-160.455,-3.253
18.23,-164.0,-3.07
18.26,-166.632,-3.047
18.3,-169.229,-3.368
18.33,-172.458,-3.551
18.36,-175.757,-3.494
18.39,-178.705,-3.494
18.43,-181.688,-3.505
18.46,-184.039,-3.528
18.49,-186.285,-3.608
18.52,-188.777,-3.861
18.56,-192.392,-4.158
18.59,-196.217,-4.239
18.62,-199.797,-4.158
18.65,-203.377,-3.792
18.69,-204.886,-3.757
18.72,-206.149,-3.906
18.75,-208.466,-3.769
18.78,-210.396,-3.746
18.82,-212.186,-4.181
18.85,-214.818,-4.365
18.88,-217.59,-4.055
18.92,-219.029,-4.055
18.95,-221.065,-4.113
18.98,-222.398,-3.883
19.01,-222.469,-4.239
19.05,-224.294,-4.594
19.08,-227.242,-4.651
19.11,-230.19,-4.766
19.14,-232.751,-4.903
19.18,-235.629,-4.651
19.21,-237.209,-4.445
19.24,-238.156,-4.422
19.27,-239.384,-4.571
19.31,-240.999,-4.869
19.34,-243.736,-5.006
19.37,-246.544,-5.086
19.4,-249.387,-5.224
19.44,-251.001,-5.189
19.47,-252.44,-5.315
19.5,-254.44,-5.224
19.53,-255.739,-5.35
19.57,-257.213,-5.659
19.6,-259.283,-5.819
19.63,-262.196,-5.579
19.66,-263.004,-5.693
19.7,-263.635,-6.163
19.73,-265.39,-6.026
19.76,-266.969,-5.957
19.79,-268.513,-6.346
19.83,-270.724,-6.427
19.86,-271.777,-6.289
19.89,-272.514,-6.507
19.92,-274.585,-6.53
19.96,-276.094,-6.346
19.99,-277.007,-6.255
20.02,-276.831,-6.53
20.05,-277.428,-6.873
20.09,-278.902,-6.976
20.12,-280.341,-7.183
20.15,-282.587,-7.286
20.18,-285.219,-7.274
20.22,-287.254,-7.183
20.25,-288.272,-7.217
20.28,-288.869,-7.332
20.31,-290.027,-7.206
20.35,-291.255,-6.908
20.38,-291.887,-6.976
20.41,-292.694,-6.85
20.45,-293.852,-6.999
20.48,-295.642,-6.701
20.51,-296.098,-6.61
20.54,-295.502,-6.85
20.58,-294.659,-6.564
20.61,-294.133,-6.747
20.64,-295.958,-7.137
20.67,-297.748,-6.85
20.71,-297.923,-6.701
20.74,-298.099,-6.782
20.77,-297.678,-6.976
20.8,-298.38,-6.965
20.84,-298.766,-6.415
20.87,-298.45,-6.427
20.9,-298.66,-6.656
20.93,-299.011,-6.736
20.97,-299.327,-6.747
21.0,-299.643,-6.919
21.03,-299.538,-7.16
21.06,-299.924,-7.114
21.1,-300.134,-6.507
21.13,-298.59,-6.484
21.16,-297.362,-6.747
21.19,-296.59,-6.713
21.23,-296.239,-6.484
21.26,-295.326,-6.472
21.29,-294.659,-6.312
21.32,-293.922,-5.774
21.36,-291.466,-5.716
21.39,-289.992,-6.175
21.42,-290.483,-6.266
21.45,-291.045,-6.186
21.49,-290.413,-6.197
21.52,-288.062,-6.289
21.55,-286.658,-5.888
21.58,-285.114,-5.315
21.62,-282.271,-5.476
21.65,-280.762,-5.682
21.68,-279.884,-5.59
21.71,-279.253,-5.556
21.75,-278.445,-5.476
21.78,-276.094,-5.327
21.81,-273.357,-5.063
21.85,-270.479,-4.926
21.88,-268.619,-5.155
21.91,-269.25,-5.121
21.94,-268.373,-5.121
21.98,-266.724,-5.35
22.01,-265.881,-5.132
22.04,-264.793,-4.731
22.07,-263.214,-4.284
22.11,-260.652,-3.929
22.14,-257.318,-4.055
22.17,-256.055,-4.17
22.2,-255.212,-4.09
22.24,-254.195,-4.216
22.27,-253.633,-4.147
22.3,-252.545,-3.849
22.33,-249.176,-3.334
22.37,-245.105,-3.368
22.4,-242.754,-3.471
22.43,-240.297,-3.574
22.46,-238.261,-3.482
22.5,-236.226,-3.46
22.53,-234.717,-3.689
22.56,-232.997,-3.654
22.59,-231.102,-3.116
22.63,-228.224,-2.875
22.66,-225.627,-3.219
22.69,-224.294,-3.15
22.72,-222.293,-3.127
22.76,-220.959,-3.23
22.79,-219.17,-3.334
22.82,-217.941,-3.15
22.85,-216.151,-2.577
22.89,-212.782,-2.451
22.92,-209.343,-2.555
22.95,-206.57,-2.577
22.98,-204.079,-2.795
23.02,-202.57,-2.875
23.05,-200.885,-2.807
23.08,-198.604,-2.704
23.11,-195.656,-2.36
23.15,-192.567,-2.234
23.18,-189.444,-2.165
23.21,-186.391,-2.257
23.25,-184.32,-2.36
23.28,-182.074,-2.543
23.31,-180.424,-2.337
23.34,-177.792,-1.97
23.38,-174.142,-1.947
23.41,-170.914,-1.776
23.44,-167.018,-1.638
23.47,-163.368,-1.684
23.51,-161.298,-1.776
23.54,-158.911,-1.879
23.57,-155.542,-1.26
23.6,-151.471,-1.283
23.64,-148.067,-1.455
23.67,-145.329,-1.409
23.7,-142.662,-1.375
23.73,-139.503,-1.1
23.77,-135.889,-1.088
23.8,-132.66,-1.134
23.83,-129.501,-1.168
23.86,-126.834,-1.226
23.9,-124.448,-1.1
23.93,-121.149,-0.825
23.96,-117.429,-0.63
23.99,-113.603,-0.699
24.03,-110.62,-0.848
24.06,-107.848,-0.619
24.09,-104.163,-0.47
24.12,-100.583,-0.378
24.16,-96.582,-0.034
24.19,-91.353,0.092
24.22,-86.58,0.046
24.25,-82.404,-0.046
24.29,-78.894,-0.183
24.32,-76.297,-0.195
24.35,-73.524,-0.092
24.38,-70.296,0.08
24.42,-66.154,0.332
24.45,-61.592,0.493
24.48,-57.135,0.493
24.51,-53.239,0.367
24.55,-49.87,0.378
24.58,-46.326,0.401
24.61,-43.062,0.435
24.64,-39.903,0.515
24.68,-36.394,0.653
24.71,-32.919,0.687
24.74,-29.55,0.676
24.78,-26.427,0.699
24.81,-23.373,0.768
24.84,-20.39,0.848
24.87,-17.407,0.939
24.91,-14.249,0.997
24.94,-10.388,1.226
24.97,-5.615,1.432
25.0,-0.491,1.455
25.04,4.422,1.352
25.07,8.704,1.249
25.1,12.564,1.1
25.13,15.652,1.111
25.17,18.846,1.249
25.2,22.707,1.363
25.23,26.146,1.237
25.26,28.532,0.985
25.3,30.392,1.065
25.33,33.025,1.386
25.36,36.464,1.604
25.39,40.324,1.627
25.43,44.15,1.73
25.46,47.975,1.925
25.49,51.836,1.97
25.52,55.696,1.89
25.56,59.486,1.902
25.59,63.136,2.039
25.62,67.207,2.119
25.65,71.243,2.096
25.69,74.998,2.085
25.72,78.508,2.119
25.75,81.912,2.085
25.78,85.001,2.073
25.82,88.089,2.291
25.85,91.879,2.429
25.88,95.985,2.451
25.91,99.67,2.463
25.95,102.899,2.474
25.98,105.917,2.417
26.01,108.865,2.474
26.04,111.954,2.555
26.08,115.042,2.726
26.11,118.973,2.852
26.14,122.833,2.944
26.18,126.553,3.024
26.21,130.063,2.875
26.24,132.555,2.887
26.27,135.081,3.036
26.31,138.065,3.196
26.34,141.258,3.356
26.37,145.575,3.654
26.4,150.523,3.918
26.44,155.472,3.746
26.47,158.665,3.093
26.5,160.35,3.253
26.53,163.052,3.334
26.57,165.158,3.185
26.6,166.913,3.311
26.63,169.44,3.586
26.66,172.984,3.803
26.7,176.248,3.792
26.73,179.442,3.723
26.76,182.32,3.62
26.79,184.601,3.597
26.83,186.812,3.7
26.86,188.953,4.055
26.89,192.462,4.353
26.92,196.814,4.284
26.96,199.867,4.296
26.99,203.026,4.25
27.02,205.447,3.815
27.05,206.676,3.677
27.09,207.693,3.803
27.12,208.781,4.181
27.15,211.308,4.376
27.18,214.151,4.525
27.22,217.661,4.536
27.25,219.907,4.491
27.28,221.381,4.25
27.31,222.118,4.135
27.35,223.802,4.319
27.38,225.838,4.674
27.41,228.61,5.029
27.44,232.014,4.983
27.48,235.173,5.052
27.51,238.472,4.903
27.54,239.63,4.445
27.57,239.244,4.536
27.61,240.086,5.018
27.64,242.824,5.304
27.67,246.368,5.304
27.71,248.755,5.155
27.74,250.299,4.914
27.77,251.352,4.754
27.8,251.703,4.811
27.84,253.177,4.8
27.87,254.089,4.846
27.9,255.809,5.338
27.93,259.775,5.247
27.97,261.565,5.247
28.0,263.495,5.51
28.03,266.057,5.258
28.06,266.829,4.869
28.1,266.934,4.972
28.13,268.338,5.086
28.16,269.25,5.281
28.19,270.444,5.728
28.23,273.006,5.923
28.26,275.146,5.934
28.29,276.445,6.152
28.32,277.919,5.991
28.36,278.586,5.762
28.39,279.253,6.071
28.42,280.376,6.301
28.45,281.674,6.575
28.49,284.061,6.667
28.52,286.693,6.289
28.55,287.675,6.301
28.58,288.097,6.598
28.62,289.009,6.518
28.65,290.308,6.243
28.68,291.15,6.152
28.71,291.711,6.53
28.75,292.905,6.839
28.78,294.168,6.816
28.81,295.326,6.644
28.84,296.098,6.495
28.88,296.169,6.598
28.91,296.59,6.472
28.94,296.519,6.312
28.97,296.87,6.518
29.01,297.818,6.461
29.04,298.204,6.301
29.07,298.695,6.301
29.11,299.257,6.243
29.14,299.362,6.69
29.17,300.45,6.358
29.2,299.257,5.613
29.24,299.081,6.381
29.27,301.187,6.518
29.3,300.38,5.785
29.33,298.064,5.911
29.37,297.186,6.278
29.4,297.853,6.495
29.43,298.871,6.598
29.46,300.485,6.346
29.5,300.661,6.289
29.53,299.678,6.541
29.56,299.152,6.335
29.59,298.59,5.854
29.63,297.221,5.544
29.66,295.291,5.304
29.69,293.326,5.029
29.72,291.185,5.098
29.76,289.816,5.51
29.79,289.641,5.602
29.82,289.29,5.396
29.85,288.026,5.258
29.89,286.237,5.04
29.92,283.289,4.914
29.95,280.972,4.926
29.98,279.709,4.926
30.02,279.288,4.983
30.05,278.972,4.892
30.08,277.673,4.674
30.11,275.217,4.594
30.15,272.9,4.513
30.18,270.619,4.422
30.21,268.654,4.594
30.24,268.268,4.605
30.28,267.426,4.525
30.31,266.478,4.559
30.34,265.425,4.387
30.37,263.354,4.284
30.41,261.424,4.009
30.44,258.652,3.872
30.47,256.371,3.998
30.51,254.3,4.204
30.54,252.896,4.193
30.57,251.562,4.239
30.6,251.282,4.445
30.64,250.369,4.204
30.67,248.334,3.677
30.7,244.859,3.574
30.73,241.982,4.032
30.77,240.929,4.135
30.8,240.367,3.918
30.83,239.42,3.826
30.86,237.595,3.929
30.9,236.156,3.54
30.93,233.313,3.104
30.96,229.803,3.15
30.99,226.469,3.334
31.03,223.732,3.368
31.06,221.661,3.494
31.09,220.924,3.414
31.12,218.854,3.494
31.16,217.064,3.334
31.19,214.326,2.933
31.22,211.238,2.887
31.25,208.22,2.944
31.29,205.482,3.059
31.32,203.377,3.219
31.35,202.148,3.276
31.38,200.885,3.116
31.42,198.744,2.933
31.45,195.901,2.612
31.48,192.357,2.612
31.51,189.76,2.509
31.55,187.479,2.451
31.58,185.408,2.749
31.61,183.794,2.784
31.64,182.004,2.486
31.68,179.021,2.142
31.71,175.09,1.959
31.74,170.668,1.81
31.77,166.106,1.707
31.81,161.789,1.879
31.84,158.56,1.902
31.87,154.945,1.558
31.9,150.488,1.535
31.94,146.452,1.684
31.97,143.048,1.627
32.0,140.521,2.039
32.04,139.749,2.509
32.07,140.276,2.543
32.1,140.346,2.165
32.13,138.31,1.65
32.17,133.783,1.065
32.2,128.203,0.871
32.23,123.325,0.997
32.26,118.903,1.065
32.3,115.147,1.088
32.33,111.989,1.077
32.36,108.936,1.157
32.39,106.058,1.077
32.43,102.829,0.871
32.46,99.039,0.733
32.49,94.968,0.596
32.52,90.686,0.435
32.56,86.089,0.424
32.59,82.053,0.538
32.62,78.508,0.596
32.65,75.49,0.63
32.69,72.893,0.653
32.72,70.296,0.63
32.75,67.558,0.515
32.78,64.435,0.332
32.82,60.68,0.149
32.85,56.503,0.0
32.88,52.081,-0.057
32.91,48.151,0.011
32.95,44.641,0.034
32.98,41.132,0.057
33.01,38.113,0.137
33.04,35.236,0.046
33.08,32.077,-0.149
33.11,28.181,-0.332
33.14,23.9,-0.493
33.17,19.618,-0.573
33.21,15.372,-0.504
33.24,11.511,-0.481
33.27,7.581,-0.47
33.3,3.545,-0.561
33.34,-0.526,-0.527
33.37,-4.527,-0.584
33.4,-8.423,-0.573
33.44,-12.108,-0.435
33.47,-14.986,-0.332
33.5,-17.583,-0.527
33.53,-21.233,-0.722
33.57,-25.198,-0.894
33.6,-29.199,-0.905
33.63,-32.674,-0.871
33.66,-35.973,-0.928
33.7,-39.412,-1.008
33.73,-42.57,-0.894
33.76,-45.062,-0.871
33.79,-47.729,-1.088
33.83,-51.064,-1.26
33.86,-54.889,-1.466
33.89,-59.416,-1.73
33.92,-64.189,-1.821
33.96,-68.752,-1.684
33.99,-72.366,-1.546
34.02,-75.49,-1.627
34.05,-78.894,-1.638
34.09,-81.947,-1.661
34.12,-84.79,-1.787
34.15,-88.37,-1.982
34.18,-92.827,-2.154
34.22,-97.108,-2.085
34.25,-100.478,-1.936
34.28,-102.724,-1.753
34.31,-104.303,-1.73
34.35,-105.882,-1.81
34.38,-107.918,-2.108
34.41,-111.322,-2.497
34.44,-115.744,-2.704
34.48,-120.587,-2.818
34.51,-125.255,-2.852
34.54,-129.817,-2.704
34.57,-133.502,-2.658
34.61,-136.555,-2.83
34.64,-140.135,-3.001
34.67,-144.487,-3.196
34.7,-149.295,-3.082
34.74,-152.875,-3.013
34.77,-155.682,-2.841
34.8,-157.402,-2.577
34.83,-158.42,-2.543
34.87,-160.876,-3.059
34.9,-164.737,-3.62
34.93,-168.527,-3.471
34.97,-171.124,-3.322
35.0,-174.107,-3.574
35.03,-177.336,-3.643
35.06,-179.968,-3.414
35.1,-182.074,-3.391
35.13,-184.18,-3.574
35.16,-186.531,-3.643
35.19,-189.725,-3.689
35.23,-192.708,-4.032
35.26,-196.603,-4.25
35.29,-199.867,-4.113
35.32,-202.429,-4.09
35.36,-204.921,-3.987
35.39,-206.992,-3.861
35.42,-208.957,-3.677
35.45,-209.94,-3.872
35.49,-211.94,-4.09
35.52,-214.081,-4.101
35.55,-216.151,-4.135
35.58,-218.117,-4.216
35.62,-220.293,-4.078
35.65,-221.1,-4.17
35.68,-222.504,-4.376
35.71,-224.75,-4.41
35.75,-227.206,-4.594
35.78,-230.084,-4.708
35.81,-232.857,-4.743
35.84,-235.068,-4.743
35.88,-237.244,-4.594
35.91,-238.612,-4.502
35.94,-240.367,-4.617
35.97,-242.543,-4.662
36.01,-243.877,-4.639
36.04,-245.245,-4.834
36.07,-247.737,-5.098
36.1,-250.299,-5.04
36.14,-251.141,-4.88
36.17,-252.054,-5.178
36.2,-253.668,-5.453
36.23,-255.458,-5.418
36.27,-256.441,-5.499
36.3,-258.301,-5.819
36.33,-261.179,-5.923
36.37,-263.179,-5.968
36.4,-264.513,-5.968
36.43,-265.46,-6.094
36.46,-267.25,-6.117
36.5,-268.829,-6.301
36.53,-270.163,-6.53
36.56,-271.286,-6.885
36.59,-273.883,-7.011
36.63,-275.883,-6.988
36.66,-277.322,-7.034
36.69,-278.13,-7.057
36.72,-279.218,-7.034
36.76,-280.411,-6.954
36.79,-282.201,-7.08
36.82,-284.798,-6.713
36.85,-285.64,-6.69
36.89,-285.991,-7.068
36.92,-286.588,-7.011
36.95,-286.938,-7.022
36.98,-287.746,-7.057
37.02,-288.658,-6.999
37.05,-289.992,-7.228
37.08,-291.711,-7.343
37.11,-293.115,-7.412
37.15,-294.659,-7.251
37.18,-295.853,-7.091
37.21,-296.835,-6.988
37.24,-297.116,-6.816
37.28,-296.87,-7.011
37.31,-297.397,-7.297
37.34,-298.239,-7.24
37.37,-298.485,-7.183
37.41,-298.485,-7.435
37.44,-299.538,-7.16
37.47,-299.818,-6.736
37.5,-298.73,-6.816
37.54,-298.204,-7.068
37.57,-299.117,-7.194
37.6,-300.275,-6.988
37.63,-301.363,-7.309
37.67,-302.38,-7.217
37.7,-303.117,-7.194
37.73,-302.1,-6.931
37.77,-299.257,-6.495
37.8,-297.888,-6.484
37.83,-298.099,-6.564
37.86,-297.537,-6.53
37.9,-296.239,-6.289
37.93,-294.098,-6.094
37.96,-292.378,-6.117
37.99,-291.606,-5.9
38.03,-289.536,-6.003
38.06,-289.29,-6.312
38.09,-289.886,-6.404
38.12,-290.869,-6.312
38.16,-290.448,-6.049
38.19,-287.711,-6.026
38.22,-285.114,-5.865
38.25,-282.762,-5.693
38.29,-281.534,-5.67
38.32,-280.797,-5.705
38.35,-280.06,-5.693
38.38,-279.253,-5.522
38.42,-277.428,-5.396
38.45,-275.252,-5.338
38.48,-272.69,-5.178
38.51,-271.04,-4.949
38.55,-269.426,-4.88
38.58,-267.987,-5.144
38.61,-267.847,-4.949
38.64,-265.776,-4.892
38.68,-264.091,-5.006
38.71,-262.863,-4.708
38.74,-261.214,-4.158
38.77,-257.88,-4.021
38.81,-255.212,-4.319
38.84,-254.089,-4.239
38.87,-253.247,-4.09
38.9,-251.984,-3.941
38.94,-250.299,-4.067
38.97,-248.334,-3.906
39.0,-245.631,-3.746
39.03,-242.683,-3.505
39.07,-239.946,-3.815
39.1,-239.279,-4.147
39.13,-238.261,-4.135
39.16,-237.805,-3.883
39.2,-235.91,-3.689
39.23,-233.488,-3.586
39.26,-230.786,-3.104
39.3,-227.452,-3.093
39.33,-225.171,-3.356
39.36,-223.732,-3.345
39.39,-221.872,-3.322
39.43,-220.468,-3.517
39.46,-219.591,-3.391
39.49,-217.415,-3.219
39.52,-214.432,-2.956
39.56,-211.519,-2.749
39.59,-208.746,-2.784
39.62,-206.36,-2.921
39.65,-204.465,-2.933
39.69,-202.815,-2.967
39.72,-201.552,-2.692
39.75,-198.709,-2.36
39.78,-194.708,-2.222
39.82,-190.742,-2.257
39.85,-187.689,-2.36
39.88,-185.443,-2.417
39.91,-183.618,-2.623
39.95,-182.179,-2.623
39.98,-179.933,-2.417
40.01,-177.196,-2.131
40.04,-173.686,-1.89
40.08,-170.142,-1.787
40.11,-166.527,-1.569
40.14,-162.912,-1.65
40.17,-160.49,-1.902
40.21,-158.279,-1.97
40.24,-155.858,-1.753
40.27,-152.875,-1.581
40.3,-149.786,-1.409
40.34,-145.996,-1.214
40.37,-142.662,-1.363
40.4,-140.205,-1.501
40.43,-138.065,-1.569
40.47,-135.362,-1.123
40.5,-131.747,-0.79
40.53,-127.992,-1.008
40.56,-125.079,-1.146
40.6,-121.886,-0.905
40.63,-117.744,-0.619
40.66,-113.954,-0.653
40.7,-110.725,-0.756
40.73,-107.426,-0.722
40.76,-103.882,-0.55
40.79,-100.056,-0.344
40.83,-95.564,-0.126
40.86,-90.756,-0.057
40.89,-86.299,0.034
40.92,-82.123,-0.034
40.96,-78.333,-0.126
40.99,-74.788,-0.103
41.02,-71.454,-0.057
41.05,-68.506,-0.046
41.09,-65.382,0.057
41.12,-61.803,0.172
41.15,-58.293,0.298
41.18,-54.608,0.378
41.22,-50.923,0.378
41.25,-47.414,0.435
41.28,-43.834,0.481
41.31,-40.289,0.573
41.35,-36.604,0.699
41.38,-32.709,0.802
41.41,-28.813,0.779
41.44,-25.269,0.779
41.48,-21.899,0.871
41.51,-18.39,0.974
41.54,-14.845,1.088
41.57,-10.915,1.191
41.61,-6.844,1.18
41.64,-2.983,1.111
41.67,0.632,1.088
41.7,3.931,1.042
41.74,7.054,1.02
41.77,10.178,0.985
41.8,13.301,1.191
41.83,16.846,1.329
41.87,20.531,1.237
41.9,24.04,1.34
41.93,27.69,1.489
41.96,31.586,1.535
42.0,35.376,1.546
42.03,39.026,1.638
42.06,42.711,1.695
42.09,46.431,1.673
42.13,50.046,1.707
42.16,53.415,1.776
42.19,56.644,1.799
42.23,60.013,1.867
42.26,63.593,1.993
42.29,67.664,2.051
42.32,71.384,2.062
42.36,74.998,2.039
42.39,78.333,2.039
42.42,81.596,2.073
42.45,84.65,2.119
42.49,87.843,2.291
42.52,91.739,2.417
42.55,95.74,2.44
42.58,99.53,2.474
42.62,103.04,2.383
42.65,105.672,2.337
42.68,108.234,2.463
42.71,111.041,2.612
42.75,114.621,2.795
42.78,118.832,2.933
42.81,123.149,2.91
42.84,126.764,2.933
42.88,129.958,2.83
42.91,132.52,2.726
42.94,134.836,2.944
42.97,138.029,3.196
43.01,141.679,3.242
43.04,145.856,3.46
43.07,150.804,3.746
43.1,155.016,3.62
43.14,157.613,3.253
43.17,159.999,3.288
43.2,162.526,3.322
43.23,164.667,3.276
43.27,166.632,3.265
43.3,168.913,3.517
43.33,172.388,3.677
43.36,175.581,3.712
43.4,178.915,3.677
43.43,181.863,3.563
43.46,183.794,3.62
43.49,186.391,3.723
43.53,189.444,3.918
43.56,192.989,4.17
43.59,196.779,4.227
43.63,199.973,4.193
43.66,203.131,4.009
43.69,204.886,3.838
43.72,205.939,3.861
43.76,207.027,3.918
43.79,209.097,4.17
43.82,211.94,4.399
43.85,214.923,4.548
43.89,217.941,4.433
43.92,219.626,4.353
43.95,220.573,4.25
43.98,221.521,4.284
44.02,223.451,4.456
44.05,226.434,4.697
44.08,229.874,4.754
44.11,232.716,4.605
44.15,234.682,4.662
44.18,236.682,4.72
44.21,237.7,4.227
44.24,237.595,4.181
44.28,239.42,4.96
44.31,243.35,5.018
44.34,245.737,4.8
44.37,247.562,4.995
44.41,250.089,4.937
44.44,251.703,4.559
44.47,251.668,4.468
44.5,251.668,4.903
44.54,254.16,4.983
44.57,256.581,4.995
44.6,258.757,5.396
44.63,261.986,5.247
44.67,263.46,5.132
44.7,265.004,5.258
44.73,265.846,5.029
44.76,266.443,5.018
44.8,268.092,5.121
44.83,270.058,5.35
44.86,271.848,5.476
44.89,272.795,5.774
44.93,275.392,5.888
44.96,277.322,5.693
44.99,277.217,5.842
45.03,278.165,5.877
45.06,278.551,6.026
45.09,280.13,6.335
45.12,282.13,6.175
45.16,283.324,6.633
45.19,285.921,6.724
45.22,287.465,6.312
45.25,287.5,6.553
45.29,288.693,6.667
45.32,289.781,6.278
45.35,289.957,6.713
45.38,291.782,6.942
45.42,293.466,6.667
45.45,294.73,6.724
45.48,296.133,6.564
45.51,296.87,6.289
45.55,297.046,6.232
45.58,296.976,6.129
45.61,296.449,6.014
45.64,296.449,6.278
45.68,297.678,6.346
45.71,297.748,6.209
45.74,298.204,6.312
45.77,299.327,6.037
45.81,299.503,6.003
45.84,299.538,5.98
45.87,299.046,5.968
45.9,300.099,6.289
45.94,301.222,6.266
45.97,300.626,5.934
46.0,300.204,5.968
46.03,299.432,6.037
46.07,298.836,6.22
46.1,299.362,6.049
46.13,299.327,5.888
46.16,299.222,6.175
46.2,299.327,6.14
46.23,299.081,5.682
46.26,297.678,5.384
46.29,295.502,5.315
46.33,293.536,5.144
46.36,291.817,4.949
46.39,290.483,5.166
46.42,290.694,5.361
46.46,290.483,5.235
46.49,289.009,5.155
46.52,286.588,5.212
46.56,285.184,4.995
46.59,284.061,4.559
46.62,282.06,4.525
46.65,280.235,4.605
46.69,278.375,4.697
46.72,276.726,4.96
46.75,276.445,5.018
46.78,276.936,4.639
46.82,275.287,4.353
46.85,272.023,4.433
46.88,269.917,4.376
46.91,268.935,4.25
46.95,267.776,4.433
46.98,266.899,4.491
47.01,265.811,4.227
47.04,264.197,3.975
47.08,261.53,3.803
47.11,258.511,3.815
47.14,256.616,3.803
47.17,254.651,4.055
47.21,253.493,4.181
47.24,252.475,4.158
47.27,251.352,4.17
47.3,249.527,4.101
47.34,247.772,3.838
47.37,245.561,3.7
47.4,243.736,3.895
47.43,242.719,3.872
47.47,241.455,3.586
47.5,239.49,3.54
47.53,237.384,3.551
47.56,234.225,3.345
47.6,230.891,3.208
47.63,228.119,3.185
47.66,225.873,3.311
47.69,223.943,3.356
47.73,221.837,3.368
47.76,220.187,3.368
47.79,218.257,3.46
47.82,216.573,3.253
47.86,214.221,2.875
47.89,211.063,2.875
47.92,208.36,2.933
47.96,206.079,2.933
47.99,204.395,2.978
48.02,202.64,3.047
48.05,200.674,3.047
48.09,198.604,2.749
48.12,195.761,2.577
48.15,192.743,2.463
48.18,189.304,2.486
48.22,186.742,2.532
48.25,184.531,2.715
48.28,182.986,2.749
48.31,181.267,2.314
48.35,177.652,2.028
48.38,173.686,1.821
48.41,169.054,1.81
48.44,164.877,1.913
48.48,161.508,2.028
48.51,159.438,2.245
48.54,157.507,2.314
48.57,155.367,2.051
48.61,152.138,1.787
48.64,148.523,1.913
48.67,145.329,1.638
48.7,141.188,1.375
48.74,137.538,1.695
48.77,135.046,1.925
48.8,133.362,1.81
48.83,131.432,1.535
48.87,128.378,1.684
48.9,126.308,1.73
48.93,123.605,1.226
48.96,119.499,0.951
49.0,115.218,0.882
49.03,111.217,0.882
49.06,107.286,0.848
49.09,103.496,0.745
49.13,99.284,0.687
49.16,94.968,0.642
49.19,90.826,0.538
49.22,86.65,0.493
49.26,82.614,0.561
49.29,79.07,0.664
49.32,76.122,0.642
49.35,73.068,0.584
49.39,69.734,0.47
49.42,65.979,0.298
49.45,62.154,0.183
49.49,58.258,0.149
49.52,54.362,0.126
49.55,50.923,0.206
49.58,47.94,0.286
49.62,45.132,0.218
49.65,41.833,0.069
49.68,38.254,-0.046
49.71,34.464,-0.137
49.75,30.603,-0.218
49.78,26.707,-0.298
49.81,22.917,-0.332
49.84,19.443,-0.321
49.88,16.214,-0.309
49.91,12.845,-0.424
49.94,9.019,-0.573
49.97,4.633,-0.642
50.01,0.316,-0.619
50.04,-3.825,-0.573
50.07,-7.616,-0.504
50.1,-11.371,-0.47
50.14,-14.459,-0.458
50.17,-17.267,-0.63
50.2,-20.987,-0.699
50.23,-24.602,-0.756
50.27,-28.322,-0.836
50.3,-31.796,-0.928
50.33,-35.376,-0.997
50.36,-38.956,-1.008
50.4,-42.43,-0.985
50.43,-45.483,-1.054
50.46,-48.747,-1.157
50.49,-52.011,-1.237
50.53,-55.345,-1.317
50.56,-58.96,-1.398
50.59,-62.68,-1.524
50.62,-66.435,-1.627
50.66,-70.226,-1.638
50.69,-74.121,-1.627
50.72,-77.666,-1.684
50.75,-81.035,-1.753
50.79,-84.299,-1.753
50.82,-87.808,-1.97
50.85,-92.09,-2.062
50.89,-95.95,-2.131
50.92,-99.565,-2.165
50.95,-102.864,-1.959
50.98,-104.865,-1.844
51.02,-106.654,-1.89
51.05,-109.286,-1.982
51.08,-112.27,-2.325
51.11,-116.165,-2.635
51.15,-120.973,-2.784
51.18,-126.027,-2.933
51.21,-130.624,-2.852
51.24,-134.415,-2.658
51.28,-137.152,-2.635
51.31,-140.1,-2.933
51.34,-144.417,-3.013
51.37,-148.698,-3.024
51.41,-152.419,-3.104
51.44,-155.788,-2.967
51.47,-158.174,-2.738
51.5,-160.175,-2.818
51.54,-162.175,-2.99
51.57,-164.526,-3.036
51.6,-166.983,-2.978
51.63,-169.58,-3.356
51.67,-172.739,-3.666
51.7,-176.073,-3.62
51.73,-179.337,-3.528
51.76,-181.758,-3.517
51.8,-183.618,-3.654
51.83,-186.742,-3.528
51.86,-189.619,-3.677
51.89,-193.304,-4.113
51.93,-197.481,-4.067
51.96,-200.394,-3.929
51.99,-202.921,-3.918
52.02,-205.377,-3.78
52.06,-207.413,-3.494
52.09,-208.536,-3.517
52.12,-209.659,-3.769
52.15,-211.835,-3.941
52.19,-214.291,-3.952
52.22,-215.695,-4.25
52.25,-217.906,-4.284
52.29,-219.591,-4.09
52.32,-220.889,-4.147
52.35,-222.012,-4.456
52.38,-224.82,-4.617
52.42,-228.154,-4.628
52.45,-231.032,-4.788
52.48,-233.594,-4.777
52.51,-235.945,-4.479
52.55,-237.103,-4.342
52.58,-237.7,-4.605
52.61,-239.946,-4.731
52.64,-242.683,-4.788
52.68,-245.316,-4.949
52.71,-247.948,-5.04
52.74,-250.439,-5.189
52.77,-251.949,-5.109
52.81,-252.51,-4.892
52.84,-253.036,-4.823
52.87,-254.475,-5.086
52.9,-257.248,-5.178
52.94,-258.862,-5.201
52.97,-259.705,-5.613
53.0,-262.653,-5.556
53.03,-263.705,-5.487
53.07,-264.162,-5.865
53.1,-264.934,-6.117
53.13,-266.724,-6.358
53.16,-269.637,-6.461
53.2,-271.707,-6.656
53.23,-273.708,-6.805
53.26,-275.954,-6.69
53.29,-276.936,-6.679
53.33,-278.165,-6.575
53.36,-278.656,-6.438
53.39,-279.147,-6.667
53.42,-280.797,-6.587
53.46,-282.095,-6.575
53.49,-283.078,-7.08
53.52,-284.938,-7.183
53.55,-286.061,-6.839
53.59,-286.798,-6.885
53.62,-288.167,-6.713
53.65,-288.483,-6.701
53.68,-288.869,-7.217
53.72,-290.904,-7.297
53.75,-292.87,-6.885
53.78,-293.677,-7.057
53.82,-294.695,-7.24
53.85,-294.975,-7.228
53.88,-295.326,-7.309
53.91,-296.519,-6.724
53.95,-296.414,-6.495
53.98,-296.66,-7.034
54.01,-297.607,-7.068
54.04,-297.923,-6.919
54.08,-298.555,-6.782
54.11,-298.801,-6.816
54.14,-298.906,-6.873
54.17,-298.204,-6.679
54.21,-297.607,-6.839
54.24,-298.239,-6.976
54.27,-299.608,-6.553
54.3,-300.626,-6.415
54.34,-300.24,-6.644
54.37,-300.099,-6.908
54.4,-299.222,-6.644
54.43,-297.713,-6.346
54.47,-296.59,-6.564
54.5,-297.607,-6.759
54.53,-298.555,-6.449
54.56,-297.116,-6.278
54.6,-294.905,-6.301
54.63,-293.08,-6.22
54.66,-292.097,-5.991
54.69,-291.431,-5.911
54.73,-291.185,-5.98
54.76,-290.273,-6.255
54.79,-290.097,-6.346
54.82,-289.711,-6.129
54.86,-288.869,-5.865
54.89,-286.237,-5.636
54.92,-283.008,-5.636
54.95,-281.323,-5.441
54.99,-280.551,-5.315
55.02,-279.955,-5.43
55.05,-278.586,-5.487
55.08,-276.375,-5.418
55.12,-273.953,-5.373
55.15,-272.374,-5.144
55.18,-270.9,-4.869
55.22,-269.005,-4.869
55.25,-266.899,-5.109
55.28,-266.127,-5.121
55.31,-266.302,-4.811
55.35,-265.355,-4.697
55.38,-262.933,-4.8
55.41,-260.898,-4.456
55.44,-259.529,-4.078
55.48,-258.16,-4.124
55.51,-256.335,-4.273
55.54,-254.686,-4.113
55.57,-252.721,-3.849
55.61,-250.65,-4.055
55.64,-249.632,-3.872
55.67,-247.386,-3.379
55.7,-244.193,-3.414
55.74,-242.192,-3.563
55.77,-239.946,-3.586
55.8,-237.489,-3.62
55.83,-235.735,-3.689
55.87,-234.471,-3.987
55.9,-234.19,-3.666
55.93,-231.628,-3.139
55.96,-228.294,-3.093
56.0,-225.241,-3.334
56.03,-223.557,-3.425
56.06,-222.644,-3.345
56.09,-221.837,-3.288
56.13,-220.012,-3.288
56.16,-217.976,-3.013
56.19,-214.783,-2.589
56.22,-211.098,-2.623
56.26,-208.43,-2.658
56.29,-205.658,-2.83
56.32,-203.622,-3.024
56.35,-202.85,-2.944
56.39,-201.622,-2.715
56.42,-198.709,-2.555
56.45,-195.024,-2.337
56.48,-191.515,-2.268
56.52,-188.321,-2.417
56.55,-186.04,-2.429
56.58,-184.145,-2.532
56.61,-182.285,-2.658
56.65,-180.038,-2.36
56.68,-177.477,-1.982
56.71,-174.248,-1.695
56.75,-170.142,-1.65
56.78,-165.649,-1.581
56.81,-161.613,-1.776
56.84,-159.297,-2.165
56.88,-157.928,-2.188
56.91,-155.858,-1.787
56.94,-152.699,-1.524
56.97,-149.014,-1.249
57.01,-144.908,-0.985
57.04,-140.802,-1.1
57.07,-137.468,-1.34
57.1,-135.608,-1.535
57.14,-133.572,-1.386
57.17,-130.87,-1.02
57.2,-127.15,-1.088
57.23,-124.132,-1.123
57.27,-120.728,-0.733
57.3,-116.27,-0.573
57.33,-112.094,-0.756
57.36,-108.9,-0.951
57.4,-106.268,-0.779
57.43,-103.04,-0.619
57.46,-99.46,-0.527
57.49,-95.529,-0.218
57.53,-90.756,0.0
57.56,-86.018,-0.103
57.59,-82.123,-0.241
57.62,-78.999,-0.229
57.66,-75.876,-0.309
57.69,-73.279,-0.263
57.72,-70.296,0.011
57.75,-66.19,0.298
57.79,-61.522,0.389
57.82,-57.03,0.344
57.85,-53.239,0.298
57.88,-49.976,0.241
57.92,-47.028,0.241
57.95,-44.185,0.321
57.98,-41.307,0.389
58.01,-38.113,0.458
58.05,-34.885,0.515
58.08,-31.586,0.676
58.11,-27.971,0.779
58.15,-24.321,0.916
58.18,-20.355,1.031
58.21,-16.389,1.111
58.24,-12.354,1.226
58.28,-7.651,1.34
58.31,-2.948,1.294
58.34,1.334,1.237
58.37,5.299,1.191
58.41,9.019,1.111
58.44,12.143,1.031
58.47,14.845,1.088
58.5,17.653,1.02
58.54,20.285,1.088
58.57,23.584,1.409
58.6,27.55,1.569
58.63,31.48,1.627
58.67,35.622,1.718
58.7,39.552,1.776
58.73,43.413,1.707
58.76,46.852,1.673
58.8,49.976,1.787
58.83,53.275,1.833
58.86,56.398,1.879
58.89,59.767,1.959
58.93,63.417,2.073
58.96,67.278,2.142
58.99,70.927,2.142
59.02,74.612,2.119
59.06,78.017,2.131
59.09,80.965,2.222
59.12,84.264,2.211
59.15,87.668,2.383
59.19,91.669,2.543
59.22,95.775,2.509
59.25,99.46,2.543
59.28,102.689,2.52
59.32,105.882,2.394
59.35,108.304,2.52
59.38,111.252,2.681
59.41,114.656,2.784
59.45,118.306,3.07
59.48,122.482,3.082
59.51,126.202,3.127
59.55,129.747,3.104
59.58,132.835,2.887
59.61,135.152,3.07
59.64,138.486,3.311
59.68,141.89,3.299
59.71,145.364,3.62
59.74,150.172,3.815
59.77,154.524,3.597
59.81,157.051,3.208
59.84,159.262,3.276
59.87,162.175,3.402
59.9,164.772,3.448
59.94,167.088,3.356
59.97,169.545,3.54
60.0,172.739,3.792
60.03,175.967,3.815
60.07,179.021,3.746
60.1,181.302,3.769
60.13,183.267,3.906
60.16,185.97,4.009
60.2,189.655,4.158
60.23,193.48,4.353
60.26,197.025,4.468
60.29,200.639,4.307
60.33,203.026,4.135
60.36,204.745,4.067
60.39,206.255,3.895
60.42,206.956,4.032
60.46,208.466,4.445
60.49,211.414,4.685
60.52,215.309,4.571
60.55,218.538,4.422
60.59,220.398,4.342
60.62,221.556,3.998
60.65,221.767,3.929
60.68,222.714,4.387
60.72,225.662,4.731
60.75,228.435,4.972
60.78,232.225,4.96
60.81,235.735,4.651
60.85,237.173,4.697
60.88,237.84,4.491
60.91,237.349,4.628
60.94,239.42,4.937
60.98,242.403,5.029
61.01,245.21,5.098
61.04,247.035,5.224
61.08,248.825,5.338
61.11,251.527,4.995
61.14,252.756,4.754
61.17,253.598,4.88
61.21,255.177,4.914
61.24,256.792,4.983
61.27,258.757,5.224
61.3,260.547,5.464
61.34,263.074,5.476
61.37,264.758,5.373
61.4,264.758,5.487
61.43,265.987,5.522
61.47,267.355,5.716
61.5,269.356,6.129
61.53,271.953,6.255
61.56,273.637,6.392
61.6,276.129,6.415
61.63,277.884,6.197
61.66,277.884,6.117
61.69,278.481,6.083
61.73,279.323,6.071
61.76,280.341,6.289
61.79,282.06,6.404
61.82,283.78,6.553
61.86,285.745,6.564
61.89,286.658,6.61
61.92,287.605,6.656
61.95,289.044,6.289
61.99,289.465,6.266
62.02,289.781,6.873
62.05,291.431,6.976
62.08,292.94,6.828
62.12,294.238,6.931
62.15,295.432,6.839
62.18,295.993,6.782
62.21,296.379,6.747
62.25,296.239,6.656
62.28,296.625,6.461
62.31,297.256,6.369
62.34,298.064,6.381
62.38,298.695,6.152
62.41,298.204,6.335
62.44,298.204,6.713
62.48,298.801,6.701
62.51,298.59,6.404
62.54,298.029,6.564
62.57,299.748,6.942
62.61,301.433,6.656
62.64,301.082,6.289
62.67,300.45,6.449
62.7,300.275,6.415
62.74,300.555,6.209
62.77,300.169,5.957
62.8,299.257,5.911
62.83,298.801,6.094
62.87,298.274,6.14
62.9,297.643,6.083
62.93,297.537,5.728
62.96,296.309,5.361
63.0,293.817,5.327
63.03,291.782,5.304
63.06,290.623,5.292
63.09,290.659,5.51
63.13,290.729,5.613
63.16,289.43,5.499
63.19,286.868,5.453
63.22,285.324,5.212
63.26,283.78,4.811
63.29,281.323,4.823
63.32,279.674,4.937
63.35,278.516,4.983
63.39,277.357,5.132
63.42,276.796,5.063
63.45,275.883,4.766
63.48,273.953,4.559
63.52,271.672,4.548
63.55,269.812,4.559
63.58,268.268,4.72
63.61,267.952,4.766
63.65,267.215,4.685
63.68,266.724,4.571
63.71,265.495,4.227
63.74,262.898,3.883
63.78,259.424,3.78
63.81,256.335,4.009
63.84,254.546,4.193
63.87,253.528,4.147
63.91,252.756,4.147
63.94,251.106,4.261
63.97,249.211,4.009
64.01,245.982,3.586
64.04,243.175,3.746
64.07,241.736,4.239
64.1,241.245,4.101
64.14,240.157,3.712
64.17,238.577,3.62
64.2,236.647,3.757
64.23,234.401,3.471
64.27,230.891,3.299
64.3,228.47,3.276
64.33,225.803,3.379
64.36,223.451,3.586
64.4,221.907,3.608
64.43,221.205,3.494
64.46,220.047,3.402
64.49,217.941,3.139
64.53,214.291,2.852
64.56,210.747,2.841
64.59,207.658,2.978
64.62,205.307,3.116
64.66,203.587,3.253
64.69,202.71,3.311
64.72,201.271,3.185
64.75,199.446,2.795
64.79,196.674,2.417
64.82,192.918,2.36
64.85,189.058,2.314
64.88,185.443,2.532
64.92,183.653,2.726
64.95,182.109,2.772
64.98,180.565,2.555
65.01,177.933,2.085
65.05,174.107,1.947
65.08,169.966,1.821
65.11,165.579,1.707
65.14,161.859,1.856
65.18,158.981,2.222
65.21,157.402,2.268
65.24,154.77,1.925
65.27,151.085,1.638
65.31,147.435,1.833
65.34,144.768,2.028
65.37,142.487,1.833
65.41,140.205,1.89
65.44,137.854,1.776
65.47,135.046,1.684
65.5,132.344,1.455
65.54,129.221,1.34
65.57,125.746,1.501
65.6,122.552,1.237
65.63,118.622,0.871
65.67,114.445,0.825
65.7,110.48,1.02
65.73,107.04,0.985
65.76,103.285,0.756
65.8,99.249,0.653
65.83,94.968,0.596
65.86,90.546,0.481
65.89,86.264,0.401
65.93,82.123,0.515
65.96,78.824,0.653
65.99,75.876,0.642
66.02,72.893,0.596
66.06,69.875,0.447
66.09,66.365,0.275
66.12,62.469,0.206
66.15,58.784,0.195
66.19,55.205,0.149
66.22,51.836,0.183
66.25,48.853,0.172
66.28,45.589,0.034
66.32,42.009,-0.149
66.35,37.938,-0.218
66.38,33.727,-0.286
66.41,29.655,-0.309
66.45,25.76,-0.309
66.48,22.25,-0.309
66.51,19.022,-0.321
66.54,15.758,-0.355
66.58,12.283,-0.424
66.61,8.563,-0.47
66.64,4.633,-0.504
66.67,0.772,-0.515
66.71,-3.123,-0.55
66.74,-6.879,-0.55
66.77,-10.774,-0.493
66.81,-13.968,-0.458
66.84,-16.74,-0.642
66.87,-20.601,-0.779
66.9,-24.461,-0.859
66.94,-28.322,-0.894
66.97,-32.007,-0.939
67.0,-35.587,-0.962
67.03,-39.026,-0.985
67.07,-42.325,-1.008
67.1,-45.448,-1.1
67.13,-48.958,-1.18
67.16,-52.327,-1.249
67.2,-55.696,-1.34
67.23,-59.241,-1.443
67.26,-62.961,-1.546
67.29,-66.856,-1.638
67.33,-70.576,-1.661
67.36,-74.226,-1.718
67.39,-77.911,-1.753
67.42,-81.526,-1.73
67.46,-84.79,-1.753
67.49,-88.019,-1.947
67.52,-91.844,-2.108
67.55,-95.985,-2.177
67.59,-99.916,-2.165
67.62,-103.285,-2.108
67.65,-106.128,-1.993
67.68,-108.269,-2.016
67.72,-110.971,-2.28
67.75,-114.761,-2.417
67.78,-118.552,-2.635
67.81,-123.114,-2.784
67.85,-127.501,-2.772
67.88,-131.221,-2.761
67.91,-134.695,-2.555
67.94,-137.257,-2.497
67.98,-139.819,-2.807
68.01,-143.855,-2.864
68.04,-147.4,-3.001
68.07,-151.295,-3.139
68.11,-154.665,-2.967
68.14,-156.841,-2.749
68.17,-158.104,-2.852
68.2,-161.157,-3.242
68.24,-164.737,-3.391
68.27,-167.123,-3.082
68.3,-169.124,-2.99
68.34,-172.002,-3.574
68.37,-176.318,-4.032
68.4,-181.548,-4.101
68.43,-186.882,-4.009
68.47,-190.953,-3.975
68.5,-193.936,-3.654
68.53,-196.147,-3.574
68.56,-198.358,-3.608
68.6,-200.534,-3.689
68.63,-203.131,-3.838
68.66,-205.588,-4.09
68.69,-208.43,-4.09
68.73,-210.361,-3.941
68.76,-212.431,-4.044
68.79,-214.783,-4.078
68.82,-216.994,-3.987
68.86,-218.398,-3.906
68.89,-219.24,-3.998
68.92,-219.977,-4.09
68.95,-221.732,-3.895
68.99,-222.223,-4.044
69.02,-224.153,-4.536
69.05,-226.891,-4.674
69.08,-229.593,-4.857
69.12,-233.032,-4.766
69.15,-235.559,-4.697
69.18,-237.981,-4.582
69.21,-239.49,-4.307
69.25,-240.437,-4.17
69.28,-241.209,-4.502
69.31,-243.526,-4.811
69.34,-246.053,-4.766
69.38,-247.667,-5.075
69.41,-250.018,-5.43
69.44,-252.475,-5.43
69.47,-254.826,-5.189
69.51,-256.23,-5.052
69.54,-256.511,-5.43
69.57,-257.809,-5.751
69.6,-259.81,-5.739
69.64,-261.81,-5.911
69.67,-264.232,-6.186
69.7,-266.864,-5.968
69.74,-267.882,-5.739
69.77,-268.057,-5.9
69.8,-269.461,-6.129
69.83,-271.146,-6.312
69.87,-272.198,-6.564
69.9,-274.059,-6.724
69.93,-276.094,-6.541
69.96,-276.796,-6.759
70.0,-278.375,-6.736
70.03,-279.218,-6.507
70.06,-280.165,-6.908
70.09,-281.92,-7.183
70.13,-283.499,-7.309
70.16,-285.535,-7.274
70.19,-286.938,-7.137
70.22,-287.605,-7.114
70.26,-287.991,-7.148
70.29,-288.799,-7.08
70.32,-289.43,-7.217
70.35,-291.045,-7.263
70.39,-292.413,-7.217
70.42,-293.852,-7.48
70.45,-295.396,-7.4
70.48,-296.239,-7.217
70.52,-296.695,-7.102
70.55,-297.081,-7.022
70.58,-297.046,-6.976
70.61,-297.256,-7.228
70.65,-298.73,-7.068
70.68,-299.152,-7.045
70.71,-298.976,-7.343
70.74,-298.766,-7.263
70.78,-298.801,-7.286
70.81,-297.572,-6.965
70.84,-287.325,-3.265
70.87,-268.022,0.0
70.91,-254.721,-2.005
70.94,-255.493,-5.304
70.97,-263.425,-5.888
71.0,-268.864,-6.049
71.04,-272.128,-7.572
71.07,-276.445,-8.511
71.1,-280.551,-8.466
71.13,-284.412,-9.016
71.17,-290.378,-9.772
71.2,-296.66,-9.142
71.23,-298.239,-8.374
71.27,-297.923,-8.42
71.3,-297.853,-7.767
71.33,-296.204,-6.885
71.36,-293.712,-6.724
71.4,-293.045,-6.679
71.43,-292.834,-6.301
71.46,-291.606,-6.186
71.49,-290.483,-5.991
71.53,-287.325,-5.9
71.56,-284.236,-5.934
71.59,-282.973,-5.67
71.62,-282.06,-5.625
71.66,-281.464,-5.923
71.69,-281.464,-5.934
71.72,-280.516,-5.67
71.75,-278.41,-5.774
71.79,-277.568,-5.567
71.82,-274.901,-5.109
71.85,-271.321,-5.224
71.88,-269.601,-5.304
71.92,-269.215,-5.144
71.95,-268.373,-5.166
71.98,-267.39,-5.132
72.01,-265.811,-5.04
72.05,-265.039,-4.766
72.08,-263.39,-4.216
72.11,-260.266,-4.135
72.14,-258.336,-4.193
72.18,-257.669,-4.021
72.21,-256.23,-3.895
72.24,-254.265,-4.032
72.27,-253.001,-3.998
72.31,-251.527,-3.872
72.34,-249.562,-3.735
72.37,-247.316,-3.654
72.4,-245.105,-3.735
72.44,-243.385,-3.654
72.47,-240.894,-3.586
72.5,-238.437,-3.551
72.53,-236.261,-3.391
72.57,-233.488,-3.345
72.6,-230.26,-3.311
72.63,-227.452,-3.219
72.67,-225.522,-3.322
72.7,-224.434,-3.563
72.73,-223.872,-3.414
72.76,-222.328,-3.15
72.8,-220.222,-3.024
72.83,-217.31,-2.864
72.86,-214.256,-2.623
72.89,-210.782,-2.681
72.93,-208.29,-2.956
72.96,-207.553,-2.841
72.99,-205.939,-2.726
73.02,-203.622,-2.841
73.06,-201.447,-2.543
73.09,-198.674,-2.543
73.12,-196.323,-2.555
73.15,-193.936,-2.555
73.19,-190.742,-2.222
73.22,-187.163,-2.073
73.25,-184.039,-2.474
73.28,-182.565,-2.532
73.32,-180.249,-2.154
73.35,-177.336,-2.234
73.38,-174.915,-1.947
73.41,-171.405,-1.638
73.45,-167.159,-1.764
73.48,-163.86,-1.695
73.51,-161.824,-1.753
73.54,-159.508,-1.902
73.58,-156.665,-1.661
73.61,-153.156,-1.398
73.64,-149.576,-1.398
73.67,-145.996,-1.203
73.71,-141.855,-1.123
73.74,-137.889,-1.111
73.77,-134.625,-1.203
73.8,-131.958,-1.352
73.84,-129.993,-1.398
73.87,-127.817,-1.317
73.9,-125.114,-1.054
73.93,-121.57,-0.676
73.97,-116.972,-0.596
74.0,-113.112,-0.756
74.03,-109.883,-0.871
74.07,-107.005,-0.768
74.1,-103.917,-0.596
74.13,-100.337,-0.504
74.16,-96.652,-0.218
74.2,-91.879,0.046
74.23,-86.755,-0.069
74.26,-82.719,-0.241
74.29,-79.491,-0.298
74.33,-76.929,-0.218
74.36,-74.156,-0.172
74.39,-71.208,-0.023
74.42,-67.488,0.367
74.46,-62.715,0.481
74.49,-58.258,0.435
74.52,-54.292,0.321
74.55,-51.028,0.298
74.59,-47.729,0.367
74.62,-44.466,0.389
74.65,-41.237,0.538
74.68,-37.411,0.779
74.72,-33.025,0.882
74.75,-28.848,0.836
74.78,-25.269,0.745
74.81,-22.25,0.768
74.85,-19.162,0.928
74.88,-15.933,1.008
74.91,-12.599,1.031
74.94,-9.09,1.031
74.98,-5.826,0.997
75.01,-2.492,1.008
75.04,0.807,1.088
75.07,4.247,1.111
75.11,8.107,1.272
75.14,12.81,1.443
75.17,17.407,1.466
75.2,21.654,1.455
75.24,26.146,1.489
75.27,30.217,1.489
75.3,33.797,1.363
75.33,37.201,1.375
75.37,40.5,1.42
75.4,43.764,1.489
75.43,47.063,1.535
75.46,50.362,1.638
75.5,53.204,1.524
75.53,55.626,1.42
75.56,58.188,1.673
75.6,61.697,1.936
75.63,65.382,1.959
75.66,68.962,1.947
75.69,72.507,2.005
75.73,76.157,2.131
75.76,79.912,2.177
75.79,83.702,2.211
75.82,87.422,2.314
75.86,91.248,2.406
75.89,95.178,2.429
75.92,98.793,2.406
75.95,102.162,2.406
75.99,105.426,2.417
76.02,108.725,2.463
76.05,112.024,2.497
76.08,115.147,2.646
76.12,118.903,2.807
76.15,122.588,2.887
76.18,126.413,2.91
76.21,129.501,2.875
76.25,132.169,2.91
76.28,134.976,2.875
76.31,138.451,3.208
76.34,142.346,3.173
76.38,145.645,3.196
76.41,149.084,3.356
76.44,152.489,3.311
76.47,155.191,3.208
76.51,157.542,3.196
76.54,160.069,3.356
76.57,163.087,3.574
76.6,166.492,3.551
76.64,169.756,3.586
76.67,173.125,3.78
76.7,176.599,3.677
76.73,179.126,3.563
76.77,181.793,3.551
76.8,184.215,3.505
76.83,186.601,3.563
76.86,189.304,3.838
76.9,193.024,4.078
76.93,196.498,4.113
76.96,199.13,4.25
77.0,201.938,4.135
77.03,203.728,4.067
77.06,205.974,3.998
77.09,207.939,3.941
77.13,210.115,4.09
77.16,211.975,4.273
77.19,214.958,4.193
77.22,217.064,4.101
77.26,218.854,4.25
77.29,220.538,4.078
77.32,221.451,4.113
77.35,223.17,4.399
77.39,225.943,4.662
77.42,228.856,4.766
77.45,231.593,4.754
77.48,233.734,4.903
77.52,236.366,4.88
77.55,237.735,4.502
77.58,238.753,4.559
77.61,240.858,4.731
77.65,242.929,4.926
77.68,245.105,5.086
77.71,247.842,5.063
77.74,250.334,5.018
77.78,252.37,4.995
77.81,253.563,4.525
77.84,253.773,4.617
77.87,255.002,5.052
77.91,257.213,4.949
77.94,259.143,4.857
77.97,260.582,5.178
78.0,262.477,5.327
78.04,264.232,5.201
78.07,265.916,5.029
78.1,267.004,5.189
78.13,268.759,5.338
78.17,270.374,5.396
78.2,271.883,5.659
78.23,273.953,5.785
78.26,275.919,5.774
78.3,276.62,5.934
78.33,276.761,6.014
78.36,277.322,6.026
78.39,278.516,6.232
78.43,280.446,6.381
78.46,283.183,5.923
78.49,284.482,6.014
78.53,285.78,6.679
78.56,287.36,6.461
78.59,287.465,6.232
78.62,287.605,6.564
78.66,289.36,6.392
78.69,290.869,5.842
78.72,291.431,6.346
78.75,293.431,6.621
78.79,294.238,6.61
78.82,295.326,6.759
78.85,296.519,6.346
78.88,296.519,6.22
78.92,296.204,6.301
78.95,296.169,6.346
78.98,296.519,6.724
79.01,298.625,6.449
79.05,299.187,5.819
79.08,298.099,6.495
79.11,298.415,6.461
79.14,298.73,6.301
79.18,299.081,6.289
79.21,299.081,6.186
79.24,299.152,6.404
79.27,300.029,6.415
79.31,300.064,6.358
79.34,299.783,6.598
79.37,299.854,6.633
79.4,300.029,6.564
79.44,299.959,6.232
79.47,298.344,6.358
79.5,299.257,6.392
79.53,299.994,5.934
79.57,298.38,5.957
79.6,296.835,5.888
79.63,295.993,5.338
79.66,293.712,5.098
79.7,291.571,5.315
79.73,290.764,5.338
79.76,290.413,5.441
79.79,290.553,5.567
79.83,290.202,5.361
79.86,287.746,5.212
79.89,285.078,5.224
79.93,283.113,4.995
79.96,281.569,4.869
79.99,280.235,4.972
80.02,279.358,5.166
80.06,278.375,5.086
80.09,276.375,5.144
80.12,275.603,5.029
80.15,274.55,4.513
80.19,272.444,4.296
80.22,270.093,4.353
80.25,268.233,4.468
80.28,267.075,4.491
80.32,266.548,4.456
80.35,266.092,4.319
80.38,264.162,4.273
80.41,262.302,4.067
80.45,260.056,3.769
80.48,257.353,4.032
80.51,255.879,4.25
80.54,254.054,4.227
80.58,252.896,4.261
80.61,252.054,4.319
80.64,250.615,4.113
80.67,248.615,3.815
80.71,245.421,3.482
80.74,241.806,3.631
80.77,240.051,3.918
80.8,238.753,3.849
80.84,236.121,3.792
80.87,234.647,3.838
80.9,233.734,3.723
80.93,231.488,3.62
80.97,229.417,3.368
81.0,226.961,3.299
81.03,224.75,3.528
81.06,222.714,3.54
81.1,221.17,3.494
81.13,219.942,3.414
81.16,217.801,3.219
81.19,214.677,2.91
81.23,210.782,2.933
81.26,208.395,3.036
81.29,206.5,2.967
81.33,204.324,3.196
81.36,202.956,3.253
81.39,201.411,3.059
81.42,199.025,2.83
81.46,196.112,2.497
81.49,192.497,2.474
81.52,189.163,2.474
81.55,186.04,2.543
81.59,184.074,2.726
81.62,182.671,2.669
81.65,180.74,2.394
81.68,177.547,2.005
81.72,173.441,1.902
81.75,169.44,1.89
81.78,165.123,1.925
81.81,161.613,2.199
81.85,159.824,2.406
81.88,158.385,2.406
81.91,156.49,2.028
81.94,153.015,1.65
81.98,148.769,1.741
82.01,144.662,1.661
82.04,140.767,1.65
82.07,137.679,1.741
82.11,135.994,2.005
82.14,135.257,1.913
82.17,133.151,1.546
82.2,130.238,1.409
82.24,126.588,1.249
82.27,122.131,1.077
82.3,117.885,0.859
82.33,113.533,0.905
82.37,109.637,1.237
82.4,106.935,1.168
82.43,103.601,0.905
82.46,99.916,0.825
82.5,95.845,0.63
82.53,91.388,0.412
82.56,86.475,0.401
82.59,82.298,0.561
82.63,79.034,0.664
82.66,76.016,0.733
82.69,73.419,0.664
82.72,70.331,0.458
82.76,66.505,0.344
82.79,62.68,0.309
82.82,58.995,0.218
82.86,55.38,0.195
82.89,51.906,0.252
82.92,48.712,0.252
82.95,45.448,0.126
82.99,41.728,0.023
83.02,38.078,-0.023
83.05,34.253,-0.126
83.08,30.463,-0.195
83.12,26.707,-0.218
83.15,23.058,-0.241
83.18,19.653,-0.263
83.21,16.354,-0.332
83.25,12.704,-0.47
83.28,8.669,-0.596
83.31,4.141,-0.63
83.34,-0.07,-0.584
83.38,-3.86,-0.458
83.41,-7.089,-0.367
83.44,-10.423,-0.412
83.47,-13.757,-0.561
83.51,-17.302,-0.813
83.54,-21.548,-0.836
83.57,-25.444,-0.813
83.6,-28.954,-0.745
83.64,-32.042,-0.756
83.67,-35.201,-0.882
83.7,-38.605,-0.939
83.73,-41.904,-0.974
83.77,-45.203,-1.077
83.8,-48.677,-1.191
83.83,-52.222,-1.26
83.86,-55.591,-1.317
83.9,-59.1,-1.443
83.93,-62.961,-1.512
83.96,-66.716,-1.638
83.99,-70.471,-1.684
84.03,-74.332,-1.661
84.06,-77.982,-1.65
84.09,-81.386,-1.673
84.12,-84.404,-1.684
84.16,-87.703,-1.913
84.19,-91.563,-2.062
84.22,-95.564,-2.177
84.26,-99.706,-2.188
84.29,-103.391,-2.096
84.32,-106.374,-2.028
84.35,-108.936,-2.051
84.39,-111.743,-2.199
84.42,-115.358,-2.394
84.45,-119.043,-2.566
84.48,-123.184,-2.726
84.52,-127.255,-2.761
84.55,-131.291,-2.623
84.58,-134.415,-2.406
84.61,-136.661,-2.463
84.65,-139.398,-2.555
84.68,-142.241,-2.852
84.71,-146.101,-3.024
84.74,-150.594,-3.036
84.78,-154.454,-3.036
84.81,-157.016,-2.726
84.84,-157.928,-2.543
84.87,-159.929,-3.024
84.91,-164.105,-3.299
84.94,-168.106,-3.311
84.97,-171.931,-3.586
85.0,-176.108,-3.815
85.04,-180.495,-3.735
85.07,-183.688,-3.345
85.1,-185.373,-3.253
85.13,-186.777,-3.379
85.17,-188.812,-3.482
85.2,-191.199,-3.631
85.23,-194.533,-3.861
85.26,-198.148,-3.746
85.3,-200.253,-3.494
85.33,-201.692,-3.345
85.36,-202.64,-3.265
85.39,-203.552,-3.299
85.43,-204.43,-3.494
85.46,-205.693,-3.861
85.49,-208.325,-4.193
85.52,-212.221,-4.17
85.56,-215.028,-4.17
85.59,-217.31,-4.319
85.62,-219.626,-4.181
85.65,-220.854,-4.273
85.69,-222.995,-4.399
85.72,-225.627,-4.353
85.75,-228.014,-4.387
85.79,-229.944,-4.594
85.82,-232.365,-4.605
85.85,-234.787,-4.513
85.88,-236.823,-4.559
85.92,-238.647,-4.513
85.95,-240.262,-4.433
85.98,-241.455,-4.605
86.01,-243.526,-4.685
86.05,-245.667,-4.674
86.08,-248.088,-4.834
86.11,-250.51,-4.731
86.14,-250.545,-4.972
86.18,-251.492,-5.384
86.21,-253.493,-5.441
86.24,-255.353,-5.67
86.27,-257.88,-5.831
86.31,-259.845,-5.9
86.34,-261.635,-6.129
86.37,-264.021,-6.14
86.4,-265.916,-6.026
86.44,-267.776,-5.911
86.47,-268.759,-5.934
86.5,-269.566,-6.094
86.53,-270.97,-6.14
86.57,-272.76,-6.22
86.6,-274.725,-6.427
86.63,-276.41,-6.472
86.66,-277.568,-6.427
86.7,-278.235,-6.358
86.73,-278.094,-6.747
86.76,-279.463,-6.816
86.79,-280.727,-6.736
86.83,-282.587,-6.965
86.86,-284.201,-7.148
86.89,-285.71,-7.251
86.92,-287.044,-7.137
86.96,-287.781,-7.274
86.99,-289.079,-7.263
87.02,-290.518,-7.022
87.05,-291.922,-6.908
87.09,-292.729,-7.183
87.12,-294.414,-7.206
87.15,-295.677,-6.679
87.19,-295.572,-6.976
87.22,-296.379,-7.091
87.25,-296.098,-6.873
87.28,-295.782,-6.965
87.32,-296.344,-7.091
87.35,-297.011,-7.137
87.38,-297.888,-6.782
87.41,-296.941,-6.713
87.45,-295.432,-6.667
87.48,-294.624,-6.255
87.51,-292.624,-6.163
87.54,-292.484,-6.713
87.58,-294.554,-6.61
87.61,-295.186,-6.828
87.64,-296.274,-7.412
87.67,-297.888,-6.885
87.71,-298.485,-6.69
87.74,-299.187,-6.999
87.77,-299.643,-7.297
87.8,-300.661,-7.251
87.84,-301.959,-7.102
87.87,-302.626,-7.068
87.9,-302.696,-7.091
87.93,-302.696,-6.656
87.97,-300.941,-6.14
88.0,-297.958,-5.854
88.03,-295.116,-5.51
88.06,-292.519,-5.59
88.1,-291.887,-5.751
88.13,-291.852,-5.487
88.16,-290.097,-5.35
88.19,-287.675,-5.384
88.23,-284.833,-5.304
88.26,-282.516,-5.292
88.29,-281.464,-5.224
88.32,-280.832,-5.201
88.36,-279.498,-5.361
88.39,-277.954,-5.464
88.42,-276.726,-5.384
88.45,-275.392,-5.235
88.49,-273.848,-4.96
88.52,-271.602,-4.743
88.55,-269.356,-4.72
88.59,-267.566,-4.846
88.62,-266.724,-4.903
88.65,-265.952,-4.811
88.68,-265.109,-4.777
88.72,-264.021,-4.456
88.75,-261.67,-3.918
88.78,-257.95,-3.872
88.81,-255.423,-4.009
88.85,-253.773,-3.906
88.88,-252.089,-3.952
88.91,-250.685,-3.895
88.94,-249.352,-3.803
88.98,-247.772,-3.757
89.01,-245.807,-3.631
89.04,-243.42,-3.54
89.07,-241.069,-3.723
89.11,-239.911,-3.654
89.14,-237.665,-3.482
89.17,-235.243,-3.586
89.2,-233.559,-3.631
89.24,-232.12,-3.391
89.27,-230.26,-3.288
89.3,-228.224,-3.036
89.33,-225.276,-2.978
89.37,-223.065,-3.494
89.4,-222.574,-3.551
89.43,-222.118,-3.299
89.46,-221.24,-3.127
89.5,-219.521,-2.898
89.53,-215.73,-2.577
89.56,-211.028,-2.669
89.59,-208.185,-2.807
89.63,-206.5,-2.887
89.66,-205.482,-2.841
89.69,-203.482,-2.807
89.72,-201.271,-2.658
89.76,-198.077,-2.394
89.79,-194.427,-2.257
89.82,-191.339,-2.165
89.85,-188.216,-2.222
89.89,-185.443,-2.417
89.92,-183.829,-2.6
89.95,-182.46,-2.704
89.98,-180.916,-2.337
90.02,-177.652,-1.913
90.05,-173.897,-1.707
90.08,-169.72,-1.524
90.12,-165.228,-1.535
90.15,-161.192,-1.661
90.18,-159.367,-1.982
90.21,-158.034,-1.936
90.25,-155.261,-1.627
90.28,-151.717,-1.18
90.31,-147.224,-1.214
90.34,-144.206,-1.42
90.38,-141.434,-1.317
90.41,-139.047,-1.398
90.44,-137.082,-1.673
90.47,-135.468,-1.535
90.51,-133.046,-1.283
90.54,-130.098,-1.1
90.57,-127.01,-0.985
90.6,-123.395,-0.619
90.64,-118.166,-0.286
90.67,-112.691,-0.447
90.7,-108.725,-0.722
90.73,-105.882,-0.733
90.77,-102.969,-0.584
90.8,-99.6,-0.481
90.83,-95.775,-0.286
90.86,-91.037,-0.08
90.9,-86.44,-0.057
90.93,-82.404,-0.137
90.96,-79.034,-0.195
90.99,-76.051,-0.126
91.03,-72.787,-0.092
91.06,-69.383,-0.023
91.09,-65.558,0.16
91.12,-61.662,0.298
91.16,-57.697,0.286
91.19,-54.222,0.241
91.22,-50.888,0.309
91.25,-47.484,0.355
91.29,-44.115,0.447
91.32,-40.57,0.538
91.35,-36.885,0.699
91.38,-32.919,0.745
91.42,-29.059,0.756
91.45,-25.514,0.768
91.48,-22.25,0.836
91.52,-18.951,0.859
91.55,-15.863,0.939
91.58,-12.634,1.02
91.61,-9.055,1.134
91.65,-4.808,1.294
91.68,-0.281,1.352
91.71,4.071,1.226
91.74,8.107,1.237
91.78,12.003,1.168
91.81,15.266,1.077
91.84,18.179,1.272
91.87,22.215,1.398
91.91,25.62,1.237
91.94,28.603,1.168
91.97,31.621,1.409
92.0,35.13,1.535
92.04,38.605,1.489
92.07,41.869,1.535
92.1,45.132,1.684
92.13,48.537,1.753
92.17,52.046,1.799
92.2,55.521,1.879
92.23,59.1,1.959
92.26,63.066,2.028
92.3,67.102,2.062
92.33,70.892,2.073
92.36,74.577,2.028
92.39,77.982,2.028
92.43,81.245,2.062
92.46,84.193,2.119
92.49,87.703,2.257
92.52,91.528,2.451
92.56,95.634,2.543
92.59,99.53,2.543
92.62,103.11,2.497
92.65,106.198,2.394
92.69,109.041,2.406
92.72,111.813,2.463
92.75,114.796,2.681
92.78,118.517,2.852
92.82,122.342,2.978
92.85,126.518,3.001
92.88,129.922,2.875
92.91,132.87,2.738
92.95,135.432,2.818
92.98,138.029,3.196
93.01,141.609,3.322
93.05,145.856,3.517
93.08,150.839,3.815
93.11,155.367,3.471
93.14,157.297,3.036
93.18,159.122,3.127
93.21,161.263,3.311
93.24,164.14,3.494
93.27,166.913,3.448
93.31,169.861,3.574
93.34,173.476,3.723
93.37,176.74,3.643
93.4,179.161,3.574
93.44,181.126,3.62
93.47,183.618,3.586
93.5,186.32,3.643
93.53,189.549,3.883
93.57,192.603,4.181
93.6,195.761,4.376
93.63,199.025,4.376
93.66,202.324,4.273
93.7,204.886,4.032
93.73,205.974,4.009
93.76,207.448,4.078
93.79,209.799,4.067
93.83,211.835,4.261
93.86,214.467,4.33
93.89,216.643,4.365
93.92,218.292,4.513
93.96,220.714,4.365
93.99,222.679,4.147
94.02,223.802,4.399
94.05,226.118,4.731
94.09,228.926,4.708
94.12,231.137,4.777
94.15,233.418,5.052
94.18,236.296,4.937
94.22,237.735,4.502
94.25,238.472,4.548
94.28,240.157,4.788
94.31,242.438,4.8
94.35,244.298,4.869
94.38,245.982,4.914
94.41,248.053,5.178
94.45,251.001,5.132
94.48,253.247,4.88
94.51,254.124,4.639
94.54,254.546,4.697
94.58,255.634,5.166
94.61,258.406,5.304
94.64,261.284,5.224
94.67,263.705,5.281
94.71,265.144,5.315
94.74,265.39,5.258
94.77,266.022,5.327
94.8,267.847,5.567
94.84,270.128,5.751
94.87,271.567,6.071
94.9,273.988,6.106
94.93,275.813,6.026
94.97,277.077,6.152
95.0,277.708,5.945
95.03,277.673,5.945
95.06,278.41,6.175
95.1,279.779,6.381
95.13,281.779,6.22
95.16,283.324,6.449
95.19,285.5,6.633
95.23,287.009,6.472
95.26,287.851,6.358
95.29,288.623,6.381
95.32,289.886,6.232
95.36,290.623,6.232
95.39,291.255,6.759
95.42,293.256,6.793
95.45,294.308,6.564
95.49,294.87,6.908
95.52,296.59,6.518
95.55,296.8,6.129
95.58,295.993,6.358
95.62,295.607,6.358
95.65,295.677,6.621
95.68,296.73,6.828
95.71,297.467,6.679
95.75,298.099,6.484
95.78,298.38,6.553
95.81,298.625,7.08
95.85,299.573,7.034
95.88,299.889,6.61
95.91,299.643,6.828
95.94,301.503,6.988
95.98,302.38,6.232
96.01,301.924,6.278
96.04,301.784,6.152
96.07,301.538,5.968
96.11,300.45,5.705
96.14,298.274,5.625
96.17,296.906,5.957
96.2,296.8,6.255
96.24,297.572,6.083
96.27,297.081,5.831
96.3,295.747,5.716
96.33,294.414,5.396
96.37,292.764,5.075
96.4,290.799,5.247
96.43,290.027,5.659
96.46,290.237,5.613
96.5,289.536,5.441
96.53,287.465,5.464
96.56,285.289,5.373
96.59,283.289,5.075
96.63,280.972,5.086
96.66,279.99,5.178
96.69,279.884,5.075
96.72,279.533,4.834
96.76,278.235,4.639
96.79,275.638,4.582
96.82,272.865,4.491
96.85,271.286,4.273
96.89,269.777,4.227
96.92,267.952,4.582
96.95,267.039,4.662
96.98,266.267,4.445
97.02,265.215,4.399
97.05,263.986,4.399
97.08,262.477,4.021
97.11,259.494,3.918
97.15,257.494,4.113
97.18,256.371,4.021
97.21,254.195,3.815
97.24,251.738,4.135
97.28,250.615,4.261
97.31,248.895,3.964
97.34,246.509,3.792
97.38,244.473,3.826
97.41,242.964,3.803
97.44,240.648,3.803
97.47,238.437,3.906
97.51,236.577,3.746
97.54,234.927,3.677
97.57,233.173,3.895
97.6,231.944,3.746
97.64,230.47,3.23
97.67,228.119,3.104
97.7,224.75,3.414
97.73,222.433,3.391
97.77,220.538,3.276
97.8,218.784,3.528
97.83,217.45,3.334
97.86,215.099,2.91
97.9,211.835,2.852
97.93,209.027,2.841
97.96,206.079,2.864
97.99,203.622,3.082
98.03,201.903,3.219
98.06,200.464,3.23
98.09,198.779,2.887
98.12,195.551,2.658
98.16,192.603,2.497
98.19,189.479,2.394
98.22,186.391,2.451
98.25,184.285,2.52
98.29,182.53,2.52
98.32,180.53,2.348
98.35,177.512,1.97
98.38,173.37,1.925
98.42,169.405,1.913
98.45,165.439,1.867
98.48,162.0,2.016
98.51,159.473,2.36
98.55,158.174,2.348
98.58,155.928,1.867
98.61,151.436,1.501
98.64,146.944,1.638
98.68,143.645,1.764
98.71,141.679,2.016
98.74,139.854,1.936
98.78,138.205,1.925
98.81,136.731,1.741
98.84,133.853,1.34
98.87,129.993,1.157
98.91,126.027,1.18
98.94,122.061,1.02
98.97,117.639,0.836
99.0,113.498,0.894
99.04,109.988,1.111
99.07,107.111,1.088
99.1,103.812,0.813
99.13,99.846,0.653
99.17,95.284,0.573
99.2,90.721,0.412
99.23,86.018,0.401
99.26,82.018,0.55
99.3,78.719,0.71
99.33,75.981,0.733
99.36,73.209,0.642
99.39,70.226,0.493
99.43,66.891,0.332
99.46,63.136,0.195
99.49,59.1,0.149
99.52,55.275,0.115
99.56,51.765,0.172
99.59,48.537,0.195
99.62,45.273,0.149
99.65,42.009,-0.023
99.69,38.324,-0.115
99.72,34.499,-0.149
99.75,30.673,-0.195
99.78,26.988,-0.263
99.82,23.373,-0.321
99.85,19.899,-0.355
99.88,16.284,-0.424
99.91,12.389,-0.55
99.95,7.896,-0.653
99.98,3.334,-0.63
100.01,-0.807,-0.504
100.04,-4.176,-0.378
100.08,-7.23,-0.309
100.11,-9.932,-0.332
100.14,-12.213,-0.63
100.17,-16.144,-0.859
100.21,-20.776,-0.905
100.24,-25.023,-0.985
100.27,-28.497,-0.894
100.31,-31.621,-0.79
100.34,-34.779,-0.962
100.37,-38.359,-1.123
100.4,-41.974,-1.088
100.44,-45.448,-1.146
100.47,-49.028,-1.272
100.5,-52.573,-1.317
100.53,-56.047,-1.306
100.57,-59.416,-1.432
100.6,-63.101,-1.558
100.63,-66.927,-1.615
100.66,-70.576,-1.65
100.7,-74.297,-1.707
100.73,-77.876,-1.695
100.76,-81.035,-1.741
100.79,-84.404,-1.81
100.83,-87.914,-1.959
100.86,-91.739,-2.154
100.89,-95.74,-2.211
100.92,-99.6,-2.222
100.96,-103.25,-2.188
100.99,-106.303,-2.108
101.02,-109.076,-2.073
101.05,-111.638,-2.257
101.09,-115.182,-2.44
101.12,-118.657,-2.589
101.15,-122.939,-2.772
101.18,-127.571,-2.704
101.22,-131.361,-2.566
101.25,-133.783,-2.463
101.28,-135.889,-2.52
101.31,-138.661,-2.635
101.35,-142.03,-2.956
101.38,-146.312,-3.036
101.41,-150.102,-3.219
101.44,-153.893,-3.253
101.48,-156.876,-2.841
101.51,-158.279,-2.612
101.54,-159.999,-3.036
101.57,-163.719,-3.265
101.61,-167.194,-3.185
101.64,-170.036,-3.379
101.67,-173.37,-3.517
101.71,-176.494,-3.654
101.74,-179.898,-3.643
101.77,-182.951,-3.448
101.8,-185.022,-3.414
101.84,-186.812,-3.608
101.87,-189.549,-3.826
101.9,-193.304,-3.918
101.93,-197.13,-3.918
101.97,-200.008,-3.826
102.0,-201.797,-3.757
102.03,-202.921,-3.723
102.06,-204.254,-3.746
102.1,-206.114,-3.712
102.13,-207.729,-3.906
102.16,-209.869,-4.273
102.19,-212.431,-4.41
102.23,-215.169,-4.387
102.26,-217.801,-4.376
102.29,-219.907,-4.33
102.32,-221.205,-4.422
102.36,-223.17,-4.456
102.39,-225.171,-4.594
102.42,-228.189,-4.708
102.45,-230.716,-4.788
102.49,-233.348,-4.788
102.52,-235.84,-4.617
102.55,-237.77,-4.513
102.58,-238.718,-4.502
102.62,-240.192,-4.685
102.65,-242.754,-4.639
102.68,-244.684,-4.674
102.71,-246.86,-4.811
102.75,-248.579,-4.903
102.78,-250.089,-4.995
102.81,-252.089,-4.903
102.84,-252.931,-5.086
102.88,-253.879,-5.487
102.91,-256.195,-5.533
102.94,-258.301,-5.567
102.97,-261.003,-5.705
103.01,-263.46,-5.705
103.04,-264.478,-5.716
103.07,-265.179,-5.716
103.11,-265.811,-5.854
103.14,-266.618,-6.152
103.17,-268.057,-6.484
103.2,-271.04,-6.438
103.24,-273.181,-6.484
103.27,-275.322,-6.679
103.3,-277.182,-6.484
103.33,-278.13,-6.278
103.37,-278.2,-6.346
103.4,-278.375,-6.656
103.43,-279.744,-6.495
103.46,-281.253,-6.415
103.5,-282.692,-6.701
103.53,-283.92,-7.148
103.56,-285.886,-6.919
103.59,-286.412,-6.805
103.63,-287.36,-7.091
103.66,-288.518,-6.942
103.69,-289.325,-7.022
103.72,-290.904,-7.102
103.76,-292.027,-7.194
103.79,-293.185,-7.343
103.82,-294.414,-7.217
103.85,-294.695,-7.206
103.89,-295.432,-7.251
103.92,-295.993,-6.759
103.95,-295.747,-6.713
103.98,-296.063,-6.954
104.02,-296.555,-7.114
104.05,-297.467,-6.873
104.08,-297.432,-6.805
104.11,-297.572,-6.896
104.15,-297.923,-6.518
104.18,-296.941,-6.438
104.21,-296.063,-7.091
104.24,-297.432,-7.263
104.28,-299.117,-6.839
104.31,-299.959,-6.885
104.34,-300.029,-7.102
104.37,-299.889,-7.492
104.41,-301.222,-7.32
104.44,-301.398,-6.839
104.47,-300.169,-7.022
104.5,-299.854,-7.171
104.54,-300.801,-6.816
104.57,-300.801,-6.278
104.6,-298.415,-6.152
104.64,-295.326,-6.037
104.67,-292.905,-5.785
104.7,-291.185,-5.67
104.73,-290.273,-5.877
104.77,-289.886,-5.991
104.8,-289.325,-5.968
104.83,-288.412,-5.865
104.86,-286.552,-5.854
104.9,-284.798,-5.67
104.93,-283.113,-5.418
104.96,-281.007,-5.418
104.99,-279.428,-5.613
105.03,-279.218,-5.625
105.06,-278.41,-5.59
105.09,-277.217,-5.59
105.12,-275.989,-5.212
105.16,-274.059,-4.72
105.19,-271.111,-4.559
105.22,-267.882,-4.8
105.25,-267.004,-4.777
105.29,-266.618,-4.628
105.32,-265.916,-4.674
105.35,-264.618,-4.662
105.38,-262.933,-4.445
105.42,-260.442,-4.216
105.45,-258.16,-4.261
105.48,-256.862,-4.261
105.51,-256.125,-4.113
105.55,-255.493,-3.998
105.58,-253.949,-3.712
105.61,-250.931,-3.723
105.64,-248.088,-3.803
105.68,-245.737,-3.689
105.71,-243.666,-3.62
105.74,-241.525,-3.861
105.77,-240.121,-3.906
105.81,-238.402,-3.631
105.84,-236.577,-3.471
105.87,-234.506,-3.54
105.9,-232.365,-3.368
105.94,-229.277,-3.448
105.97,-227.382,-3.356
106.0,-225.346,-3.23
106.04,-223.767,-3.643
106.07,-223.557,-3.574
106.1,-222.223,-3.242
106.13,-220.117,-3.185
106.17,-217.976,-3.139
106.2,-215.765,-2.623
106.23,-212.045,-2.543
106.26,-208.781,-2.681
106.3,-205.974,-2.669
106.33,-203.903,-2.841
106.36,-202.71,-2.818
106.39,-201.201,-2.612
106.43,-198.674,-2.314
106.46,-194.989,-2.085
106.49,-190.848,-2.142
106.52,-187.408,-2.28
106.56,-185.162,-2.371
106.59,-183.653,-2.623
106.62,-182.6,-2.658
106.65,-180.705,-2.291
106.69,-177.266,-2.016
106.72,-173.476,-1.821
106.75,-169.791,-1.741
106.78,-166.492,-1.546
106.82,-162.842,-1.546
106.85,-160.315,-1.821
106.88,-158.069,-1.879
106.91,-155.472,-1.627
106.95,-152.524,-1.375
106.98,-148.944,-1.375
107.01,-145.224,-1.168
107.04,-142.171,-1.375
107.08,-140.311,-1.661
107.11,-138.907,-1.604
107.14,-136.345,-1.1
107.17,-131.958,-0.859
107.21,-128.062,-0.848
107.24,-124.658,-0.813
107.27,-120.973,-0.699
107.3,-116.832,-0.378
107.34,-112.48,-0.401
107.37,-109.041,-0.596
107.4,-105.812,-0.63
107.43,-102.443,-0.504
107.47,-99.074,-0.355
107.5,-95.003,-0.195
107.53,-90.826,-0.08
107.57,-86.861,0.103
107.6,-82.544,-0.023
107.63,-78.999,-0.126
107.66,-75.911,-0.046
107.7,-72.823,-0.046
107.73,-69.734,0.0
107.76,-66.365,0.241
107.79,-62.259,0.424
107.83,-57.977,0.401
107.86,-54.187,0.344
107.89,-50.818,0.401
107.92,-47.484,0.447
107.96,-44.115,0.447
107.99,-40.746,0.515
108.02,-37.131,0.733
108.05,-33.2,0.813
108.09,-29.48,0.836
108.12,-25.935,0.894
108.15,-22.321,0.928
108.18,-18.916,0.985
108.22,-15.372,1.1
108.25,-11.687,1.088
108.28,-8.002,1.134
108.31,-3.86,1.249
108.35,0.246,1.214
108.38,3.825,1.065
108.41,6.914,1.008
108.44,10.072,1.008
108.48,13.231,1.146
108.51,16.67,1.409
108.54,21.198,1.535
108.57,25.128,1.352
108.61,28.357,1.203
108.64,31.375,1.398
108.67,34.955,1.512
108.7,38.324,1.524
108.74,41.833,1.569
108.77,45.448,1.707
108.8,49.239,1.81
108.83,53.064,1.799
108.87,56.679,1.776
108.9,60.153,1.799
108.93,63.382,1.89
108.97,66.891,1.925
109.0,70.401,1.982
109.03,74.051,2.096
109.06,77.946,2.188
109.1,81.667,2.142
109.13,84.825,2.119
109.16,88.124,2.268
109.19,91.634,2.394
109.23,95.248,2.497
109.26,99.144,2.532
109.29,102.759,2.486
109.32,105.882,2.44
109.36,108.655,2.463
109.39,111.568,2.532
109.42,114.832,2.704
109.45,118.692,2.852
109.49,122.552,2.887
109.52,126.588,2.91
109.55,130.063,2.784
109.58,132.309,2.761
109.62,134.695,2.967
109.65,138.029,3.196
109.68,141.714,3.334
109.71,145.961,3.482
109.75,150.418,3.735
109.78,154.63,3.494
109.81,156.841,2.956
109.84,158.279,3.116
109.88,160.561,3.402
109.91,163.719,3.482
109.94,166.597,3.448
109.97,169.229,3.597
110.01,172.598,3.815
110.04,176.529,3.677
110.07,179.442,3.54
110.1,181.653,3.563
110.14,183.759,3.528
110.17,185.724,3.735
110.2,188.988,4.044
110.23,192.813,4.239
110.27,196.252,4.399
110.3,200.078,4.307
110.33,202.885,4.101
110.37,204.64,3.998
110.4,206.114,3.883
110.43,207.623,3.883
110.46,209.343,4.113
110.5,211.729,4.376
110.53,214.677,4.307
110.56,216.994,4.342
110.59,219.38,4.342
110.63,220.573,4.181
110.66,221.486,4.261
110.69,223.557,4.399
110.72,225.803,4.651
110.76,228.505,4.914
110.79,231.944,4.697
110.82,234.998,4.513
110.85,237.244,4.376
110.89,236.717,4.353
110.92,237.489,4.376
110.95,239.314,4.571
110.98,241.35,4.926
111.02,244.087,5.189
111.05,247.351,4.892
111.08,248.86,4.846
111.11,250.79,5.04
111.15,252.756,4.926
111.18,254.23,4.708
111.21,255.072,4.731
111.24,256.195,5.327
111.28,259.389,5.373
111.31,262.021,5.155
111.34,263.53,5.292
111.37,264.513,5.499
111.41,265.811,5.212
111.44,266.829,5.109
111.47,268.373,5.396
111.5,270.584,5.487
111.54,272.514,5.441
111.57,274.445,5.441
111.6,275.462,5.567
111.63,276.41,5.67
111.67,277.182,5.418
111.7,277.814,5.441
111.73,278.41,5.762
111.76,279.393,6.152
111.8,280.867,6.232
111.83,282.411,6.53
111.86,284.622,6.701
111.9,285.921,6.759
111.93,286.798,6.919
111.96,288.062,6.747
111.99,289.114,6.644
112.03,290.308,6.713
112.06,291.501,6.896
112.09,293.782,6.782
112.12,295.01,6.621
112.16,295.993,6.77
112.19,296.835,6.472
112.22,296.695,6.427
112.25,296.484,6.289
112.29,296.309,6.163
112.32,296.449,6.335
112.35,296.87,6.736
112.38,298.415,6.266
112.42,298.871,5.945
112.45,299.959,5.9
112.48,299.713,5.991
112.51,299.327,6.117
112.55,298.73,6.14
112.58,300.029,6.656
112.61,301.257,6.415
112.64,300.134,6.404
112.68,299.608,6.427
112.71,299.292,6.392
112.74,299.362,6.186
112.77,299.011,5.865
112.81,298.73,5.923
112.84,299.538,5.98
112.87,299.081,5.957
112.9,297.713,5.957
112.94,296.309,5.923
112.97,295.958,5.522
113.0,294.519,5.258
113.03,292.975,5.201
113.07,291.817,5.109
113.1,291.045,5.224
113.13,290.518,5.315
113.16,289.43,5.212
113.2,287.009,5.178
113.23,284.798,5.132
113.26,282.376,5.063
113.3,280.095,5.224
113.33,279.288,5.304
113.36,279.112,5.327
113.39,278.972,5.224
113.43,277.673,5.121
113.46,276.62,4.846
113.49,274.269,4.525
113.52,271.04,4.651
113.56,269.987,4.594
113.59,269.742,4.273
113.62,268.268,4.387
113.65,267.25,4.342
113.69,265.565,4.067
113.72,262.898,4.147
113.75,261.038,4.17
113.78,259.494,3.861
113.82,257.037,4.021
113.85,255.353,4.239
113.88,253.563,3.895
113.91,251.457,4.158
113.95,250.861,4.387
113.98,249.527,3.964
114.01,246.649,3.62
114.04,244.193,3.723
114.08,242.648,3.861
114.11,241.104,3.757
114.14,239.49,3.62
114.17,237.279,3.505
114.21,235.103,3.551
114.24,233.243,3.666
114.27,231.593,3.563
114.3,228.786,3.482
114.34,226.855,3.54
114.37,225.136,3.494
114.4,222.714,3.574
114.43,221.24,3.505
114.47,219.135,3.494
114.5,217.169,3.368
114.53,214.432,3.036
114.56,211.203,3.036
114.6,208.957,2.956
114.63,206.29,3.024
114.66,204.395,3.093
114.69,202.394,3.15
114.73,200.288,3.253
114.76,198.814,2.875
114.79,196.112,2.555
114.83,192.989,2.417
114.86,189.339,2.325
114.89,186.075,2.486
114.92,184.25,2.612
114.96,182.495,2.646
114.99,180.319,2.509
115.02,177.161,2.177
115.05,173.335,2.119
115.09,170.247,1.993
115.12,166.386,1.821
115.15,162.596,1.925
115.18,159.683,2.142
115.22,157.332,2.383
115.25,155.753,2.154
115.28,153.085,1.821
115.31,149.786,1.833
115.35,146.101,1.558
115.38,141.679,1.569
115.41,137.784,1.707
115.44,135.889,2.028
115.48,135.011,2.062
115.51,132.941,1.638
115.54,129.607,1.443
115.57,126.202,1.398
115.61,122.447,1.088
115.64,117.639,0.894
115.67,113.393,0.985
115.7,110.234,1.1
115.74,107.146,1.042
115.77,103.812,0.848
115.8,99.706,0.664
115.83,95.003,0.561
115.87,90.405,0.447
115.9,85.878,0.424
115.93,81.807,0.584
115.96,78.578,0.756
116.0,75.946,0.768
116.03,73.489,0.664
116.06,70.612,0.481
116.09,66.997,0.344
116.13,63.171,0.218
116.16,59.241,0.149
116.19,55.38,0.149
116.23,51.941,0.195
116.26,48.853,0.183
116.29,45.483,0.08
116.32,41.833,-0.023
116.36,38.043,-0.08
116.39,34.007,-0.149
116.42,30.182,-0.206
116.45,26.497,-0.298
116.49,22.672,-0.321
116.52,19.162,-0.298
116.55,15.793,-0.378
116.58,12.213,-0.481
116.62,8.247,-0.55
116.65,4.071,-0.561
