Trigger_Date,2023/07/31
Trigger_Time,T 23:48:38.869 PDT
Samples_Per_Cycle,512
Microseconds_Per_Sample,32.533
Time (ms),Voltage (V),Current (A)
-16.66,-13.231,-0.241
-16.62,-17.653,-0.699
-16.59,-21.654,-0.836
-16.56,-24.953,-1.524
-16.53,-30.884,-2.234
-16.49,-34.148,-2.199
-16.46,-38.184,-3.116
-16.43,-43.553,-3.127
-16.4,-47.554,-3.334
-16.36,-51.941,-3.574
-16.33,-55.942,-3.712
-16.3,-59.732,-3.906
-16.27,-63.733,-4.158
-16.23,-67.628,-4.296
-16.2,-71.243,-4.513
-16.17,-74.823,-4.708
-16.14,-78.508,-4.949
-16.1,-82.333,-5.201
-16.07,-86.089,-5.453
-16.04,-89.774,-5.693
-16.01,-93.423,-5.957
-15.97,-97.108,-6.175
-15.94,-100.758,-6.392
-15.91,-104.338,-6.575
-15.88,-107.883,-6.805
-15.84,-111.392,-7.08
-15.81,-114.972,-7.32
-15.78,-118.622,-7.561
-15.75,-122.202,-7.79
-15.71,-125.887,-7.996
-15.68,-129.607,-8.225
-15.65,-133.221,-8.397
-15.62,-136.836,-8.615
-15.58,-140.591,-8.924
-15.55,-144.768,-9.187
-15.52,-148.804,-9.394
-15.49,-152.734,-9.657
-15.45,-156.735,-9.84
-15.42,-160.49,-10.012
-15.39,-164.211,-10.184
-15.36,-167.79,-10.413
-15.32,-171.37,-10.642
-15.29,-174.915,-10.848
-15.26,-178.389,-10.997
-15.23,-181.723,-11.295
-15.19,-185.303,-11.398
-15.16,-188.075,-11.627
-15.13,-192.638,-12.017
-15.1,-195.48,-11.879
-15.06,-198.499,-12.383
-15.03,-201.797,-12.372
-15.0,-205.377,-12.773
-14.97,-208.641,-12.727
-14.93,-211.449,-13.036
-14.9,-214.993,-13.14
-14.87,-217.661,-13.334
-14.84,-220.819,-13.586
-14.8,-223.767,-13.735
-14.77,-226.434,-13.896
-14.74,-229.137,-14.136
-14.71,-232.05,-14.262
-14.67,-234.682,-14.377
-14.64,-237.033,-14.526
-14.61,-239.42,-14.697
-14.57,-241.911,-14.892
-14.54,-244.473,-15.075
-14.51,-247.141,-15.27
-14.48,-249.983,-15.58
-14.44,-252.896,-15.786
-14.41,-255.844,-15.969
-14.38,-258.617,-16.141
-14.35,-260.968,-16.233
-14.31,-263.214,-16.324
-14.28,-265.215,-16.45
-14.25,-267.355,-16.588
-14.22,-269.566,-16.714
-14.18,-271.742,-16.84
-14.15,-273.918,-17.0
-14.12,-276.094,-17.126
-14.09,-278.165,-17.264
-14.05,-280.13,-17.435
-14.02,-282.201,-17.584
-13.99,-284.341,-17.71
-13.96,-286.377,-17.825
-13.92,-288.377,-17.939
-13.89,-290.308,-18.054
-13.86,-292.273,-18.157
-13.83,-294.133,-18.283
-13.79,-295.958,-18.432
-13.76,-297.678,-18.592
-13.73,-299.292,-18.73
-13.7,-300.941,-18.844
-13.66,-302.521,-18.89
-13.63,-303.889,-18.925
-13.6,-305.083,-19.028
-13.57,-306.416,-19.073
-13.53,-307.645,-19.165
-13.5,-308.978,-19.257
-13.47,-310.207,-19.314
-13.44,-311.47,-19.371
-13.4,-312.698,-19.417
-13.37,-313.892,-19.532
-13.34,-314.944,-19.635
-13.31,-316.032,-19.692
-13.27,-316.769,-19.738
-13.24,-317.577,-19.83
-13.21,-318.314,-19.875
-13.18,-319.051,-19.921
-13.14,-319.753,-19.956
-13.11,-320.419,-19.978
-13.08,-321.156,-19.967
-13.05,-321.613,-20.059
-13.01,-322.455,-20.116
-12.98,-322.806,-20.104
-12.95,-323.613,-20.208
-12.92,-324.42,-20.104
-12.88,-324.806,-20.173
-12.85,-325.227,-20.253
-12.82,-325.789,-20.357
-12.79,-326.175,-20.345
-12.75,-326.736,-20.494
-12.72,-327.158,-20.425
-12.69,-327.509,-20.551
-12.66,-328.246,-20.391
-12.62,-328.316,-20.437
-12.59,-328.877,-20.425
-12.56,-329.123,-20.425
-12.53,-329.509,-20.402
-12.49,-329.228,-20.379
-12.46,-329.93,-20.528
-12.43,-330.457,-20.334
-12.4,-330.667,-20.425
-12.36,-330.983,-20.311
-12.33,-331.123,-20.322
-12.3,-331.369,-20.311
-12.27,-331.509,-20.322
-12.23,-331.755,-20.276
-12.2,-331.86,-20.253
-12.17,-332.141,-20.196
-12.13,-332.281,-20.139
-12.1,-332.352,-20.116
-12.07,-332.527,-20.093
-12.04,-332.632,-20.024
-12.0,-332.668,-19.978
-11.97,-332.703,-19.956
-11.94,-332.808,-19.91
-11.91,-332.913,-19.818
-11.87,-332.913,-19.726
-11.84,-332.948,-19.658
-11.81,-332.948,-19.646
-11.78,-332.983,-19.6
-11.74,-332.948,-19.578
-11.71,-332.948,-19.532
-11.68,-332.948,-19.417
-11.65,-332.878,-19.326
-11.61,-332.843,-19.222
-11.58,-332.738,-19.142
-11.55,-332.632,-19.073
-11.52,-332.492,-18.97
-11.48,-332.246,-18.879
-11.45,-331.966,-18.799
-11.42,-331.509,-18.741
-11.39,-331.053,-18.627
-11.35,-330.421,-18.409
-11.32,-328.947,-18.203
-11.29,-327.789,-18.123
-11.26,-326.736,-17.905
-11.22,-325.087,-17.676
-11.19,-323.051,-17.504
-11.16,-321.086,-17.332
-11.13,-319.261,-17.206
-11.09,-317.331,-16.989
-11.06,-314.874,-16.828
-11.03,-312.207,-16.725
-11.0,-309.75,-16.542
-10.96,-306.978,-16.393
-10.93,-304.205,-16.244
-10.9,-301.257,-16.049
-10.87,-298.204,-15.854
-10.83,-294.975,-15.648
-10.8,-291.536,-15.488
-10.77,-288.272,-15.373
-10.74,-284.903,-15.247
-10.7,-281.674,-15.121
-10.67,-278.551,-14.938
-10.64,-275.462,-14.743
-10.61,-272.514,-14.583
-10.57,-269.601,-14.388
-10.54,-266.443,-14.216
-10.51,-263.319,-14.09
-10.48,-260.056,-13.907
-10.44,-256.651,-13.747
-10.41,-253.282,-13.586
-10.38,-249.948,-13.414
-10.35,-246.684,-13.231
-10.31,-243.42,-13.036
-10.28,-240.121,-12.842
-10.25,-236.858,-12.693
-10.22,-233.629,-12.521
-10.18,-230.435,-12.303
-10.15,-227.101,-12.097
-10.12,-223.732,-11.914
-10.09,-220.398,-11.708
-10.05,-216.994,-11.478
-10.02,-213.484,-11.284
-9.99,-209.94,-11.089
-9.96,-206.29,-10.871
-9.92,-202.64,-10.711
-9.89,-198.955,-10.505
-9.86,-195.235,-10.253
-9.83,-191.409,-10.035
-9.79,-187.654,-9.794
-9.76,-183.653,-9.554
-9.73,-179.547,-9.336
-9.69,-175.511,-9.13
-9.66,-171.3,-8.878
-9.63,-167.053,-8.626
-9.6,-162.772,-8.374
-9.56,-158.49,-8.111
-9.53,-154.138,-7.87
-9.5,-149.716,-7.641
-9.47,-145.224,-7.446
-9.43,-140.802,-7.24
-9.4,-136.345,-6.999
-9.37,-131.783,-6.747
-9.34,-127.185,-6.53
-9.3,-122.658,-6.312
-9.27,-118.095,-6.094
-9.24,-113.463,-5.888
-9.21,-108.865,-5.67
-9.17,-104.408,-5.418
-9.14,-99.741,-5.178
-9.11,-95.213,-4.96
-9.08,-90.651,-4.697
-9.04,-86.124,-4.502
-9.01,-81.596,-4.261
-8.98,-77.069,-4.055
-8.95,-72.507,-3.826
-8.91,-67.944,-3.643
-8.88,-63.417,-3.379
-8.85,-58.96,-3.208
-8.82,-54.433,-2.864
-8.78,-50.011,-2.692
-8.75,-45.168,-2.303
-8.72,-41.237,-2.406
-8.69,-36.639,-1.753
-8.65,-30.498,-1.718
-8.62,-27.304,-1.776
-8.59,-22.672,-1.191
-8.56,-17.407,-1.123
-8.52,-13.231,-0.951
-8.49,-9.125,-0.653
-8.46,-4.387,-0.481
-8.43,-0.175,-0.389
-8.39,4.211,-0.137
-8.36,8.844,-0.023
-8.33,13.161,0.206
-8.3,17.337,0.504
-8.26,21.654,0.916
-8.23,25.655,1.363
-8.2,29.831,1.925
-8.17,33.937,2.417
-8.13,38.219,2.91
-8.1,42.676,3.219
-8.07,46.922,3.471
-8.04,51.239,3.7
-8.0,55.486,3.826
-7.97,59.592,3.941
-7.94,63.522,4.124
-7.91,67.488,4.342
-7.87,71.243,4.548
-7.84,74.928,4.754
-7.81,78.508,4.983
-7.78,82.193,5.224
-7.74,85.843,5.453
-7.71,89.563,5.659
-7.68,93.283,5.854
-7.65,96.933,6.083
-7.61,100.548,6.335
-7.58,104.092,6.598
-7.55,107.672,6.873
-7.52,111.357,7.08
-7.48,114.937,7.332
-7.45,118.657,7.584
-7.42,122.342,7.801
-7.39,126.237,7.973
-7.35,129.852,8.225
-7.32,133.713,8.454
-7.29,136.591,8.557
-7.25,141.223,9.176
-7.22,145.399,8.981
-7.19,148.804,9.416
-7.16,153.577,9.634
-7.12,157.262,9.794
-7.09,161.052,10.069
-7.06,164.737,10.264
-7.03,168.246,10.482
-6.99,171.967,10.677
-6.96,175.581,10.825
-6.93,179.126,10.963
-6.9,182.425,11.181
-6.86,185.829,11.421
-6.83,189.339,11.639
-6.8,192.673,11.834
-6.77,196.007,12.028
-6.73,199.236,12.257
-6.7,202.605,12.441
-6.67,205.763,12.624
-6.64,208.992,12.865
-6.6,212.115,13.059
-6.57,215.134,13.243
-6.54,218.152,13.46
-6.51,221.275,13.621
-6.47,224.258,13.758
-6.44,227.136,13.896
-6.41,229.944,14.09
-6.38,232.576,14.308
-6.34,235.278,14.468
-6.31,237.665,14.617
-6.28,239.946,14.846
-6.25,242.438,14.995
-6.21,244.965,15.179
-6.18,247.878,15.408
-6.15,250.931,15.58
-6.12,253.668,15.763
-6.08,256.3,15.946
-6.05,258.687,16.152
-6.02,261.179,16.267
-5.99,263.319,16.359
-5.95,265.601,16.416
-5.92,267.741,16.496
-5.89,269.847,16.737
-5.86,272.093,16.908
-5.82,274.339,17.034
-5.79,276.445,17.172
-5.76,278.516,17.355
-5.73,280.656,17.481
-5.69,282.657,17.584
-5.66,284.727,17.722
-5.63,286.728,17.905
-5.6,288.728,18.054
-5.56,290.623,18.146
-5.53,292.484,18.317
-5.5,294.554,18.386
-5.47,296.309,18.421
-5.43,298.064,18.581
-5.4,299.678,18.615
-5.37,301.117,18.879
-5.34,302.766,18.821
-5.3,304.135,19.051
-5.27,305.293,18.959
-5.24,305.89,19.165
-5.21,308.557,19.326
-5.17,309.435,19.108
-5.14,310.873,19.463
-5.11,312.032,19.291
-5.08,313.084,19.566
-5.04,314.383,19.452
-5.01,315.085,19.692
-4.98,316.348,19.669
-4.95,317.05,19.715
-4.91,317.857,19.772
-4.88,318.559,19.818
-4.85,319.156,19.933
-4.81,319.788,20.047
-4.78,320.525,20.104
-4.75,321.191,20.139
-4.72,321.788,20.139
-4.68,322.385,20.196
-4.65,322.946,20.242
-4.62,323.508,20.334
-4.59,324.139,20.368
-4.55,324.666,20.402
-4.52,325.262,20.448
-4.49,325.824,20.402
-4.46,326.35,20.334
-4.42,326.842,20.322
-4.39,327.122,20.402
-4.36,327.579,20.54
-4.33,328.07,20.494
-4.29,328.491,20.46
-4.26,328.877,20.448
-4.23,329.263,20.483
-4.2,329.439,20.299
-4.16,329.298,20.345
-4.13,330.07,20.448
-4.1,330.281,20.448
-4.07,330.772,20.471
-4.03,331.018,20.276
-4.0,331.229,20.357
-3.97,331.544,20.23
-3.94,331.685,20.208
-3.9,331.86,20.173
-3.87,332.036,20.196
-3.84,332.211,20.173
-3.81,332.246,20.265
-3.77,332.527,20.208
-3.74,332.562,20.196
-3.71,332.773,20.173
-3.68,332.878,20.059
-3.64,332.983,19.921
-3.61,332.948,19.921
-3.58,333.054,19.898
-3.55,333.054,19.818
-3.51,333.089,19.795
-3.48,333.159,19.715
-3.45,333.194,19.612
-3.42,333.159,19.532
-3.38,333.159,19.474
-3.35,333.089,19.394
-3.32,332.983,19.394
-3.29,332.948,19.326
-3.25,332.843,19.314
-3.22,332.808,19.188
-3.19,332.668,19.016
-3.16,332.492,18.879
-3.12,332.281,18.627
-3.09,331.615,18.592
-3.06,331.088,18.558
-3.03,330.421,18.432
-2.99,329.228,18.191
-2.96,327.754,18.031
-2.93,326.772,17.928
-2.9,325.122,17.619
-2.86,323.087,17.516
-2.83,321.121,17.367
-2.8,319.226,17.298
-2.77,317.191,17.16
-2.73,314.769,16.966
-2.7,312.277,16.759
-2.67,309.645,16.611
-2.64,307.048,16.427
-2.6,304.1,16.29
-2.57,301.222,16.118
-2.54,298.099,15.935
-2.51,294.765,15.832
-2.47,291.571,15.602
-2.44,288.272,15.419
-2.41,284.973,15.27
-2.37,281.674,15.121
-2.34,278.41,14.995
-2.31,275.357,14.881
-2.28,272.374,14.732
-2.24,269.356,14.583
-2.21,266.443,14.377
-2.18,263.354,14.136
-2.15,260.091,13.918
-2.11,256.792,13.747
-2.08,253.387,13.575
-2.05,250.089,13.392
-2.02,246.79,13.185
-1.98,243.385,13.071
-1.95,240.262,12.842
-1.92,236.928,12.624
-1.89,233.699,12.487
-1.85,230.47,12.269
-1.82,227.101,12.097
-1.79,223.767,11.96
-1.76,220.363,11.776
-1.72,216.994,11.57
-1.69,213.589,11.307
-1.66,209.975,11.055
-1.63,206.36,10.86
-1.59,202.71,10.642
-1.56,199.025,10.436
-1.53,195.129,10.23
-1.5,191.304,10.058
-1.46,187.444,9.84
-1.43,183.653,9.554
-1.4,179.547,9.29
-1.37,175.441,9.061
-1.33,171.335,8.832
-1.3,167.088,8.637
-1.27,162.912,8.397
-1.24,158.56,8.145
-1.2,154.173,7.939
-1.17,149.857,7.664
-1.14,145.364,7.412
-1.11,140.907,7.183
-1.07,136.38,6.976
-1.04,131.783,6.77
-1.01,127.22,6.53
-0.98,122.588,6.335
-0.94,118.095,6.106
-0.91,113.603,5.819
-0.88,109.006,5.567
-0.85,104.443,5.373
-0.81,99.846,5.166
-0.78,95.213,4.972
-0.75,90.616,4.777
-0.72,86.124,4.548
-0.68,81.631,4.342
-0.65,77.139,4.067
-0.62,72.647,3.826
-0.59,68.12,3.586
-0.55,63.628,3.368
-0.52,59.03,3.139
-0.49,54.468,2.933
-0.46,49.835,2.715
-0.42,45.343,2.497
-0.39,40.816,2.199
-0.36,36.183,1.936
-0.33,31.586,1.707
-0.29,27.129,1.478
-0.26,22.566,1.237
-0.23,17.969,1.02
-0.2,13.406,0.802
-0.16,8.879,0.653
-0.13,4.387,0.435
-0.1,-0.07,0.309
-0.07,-4.668,0.115
-0.03,-8.984,0.023
0.0,-13.406,-0.309
0.03,-17.583,-0.515
0.07,-21.935,-1.054
0.1,-25.374,-1.203
0.13,-29.41,-2.211
0.16,-35.165,-2.486
0.2,-38.008,-2.692
0.23,-42.886,-3.482
0.26,-47.659,-3.379
0.29,-51.73,-3.689
0.33,-56.047,-3.815
0.36,-59.908,-3.952
0.39,-63.663,-4.158
0.42,-67.628,-4.387
0.46,-71.349,-4.548
0.49,-74.928,-4.8
0.52,-78.508,-5.006
0.55,-82.333,-5.224
0.59,-86.089,-5.384
0.62,-89.633,-5.625
0.65,-93.353,-5.877
0.68,-97.038,-6.106
0.72,-100.583,-6.358
0.75,-104.198,-6.621
0.78,-107.812,-6.793
0.81,-111.392,-6.999
0.85,-115.007,-7.24
0.88,-118.622,-7.48
0.91,-122.202,-7.755
0.94,-126.027,-7.996
0.98,-129.747,-8.202
1.01,-133.397,-8.397
1.04,-136.871,-8.569
1.07,-140.591,-8.878
1.11,-144.662,-9.187
1.14,-148.839,-9.474
1.17,-152.805,-9.714
1.2,-156.735,-9.955
1.24,-160.49,-10.138
1.27,-164.351,-10.276
1.3,-167.966,-10.413
1.33,-171.545,-10.642
1.37,-174.985,-10.825
1.4,-178.494,-11.089
1.43,-181.934,-11.204
1.46,-185.443,-11.478
1.5,-188.602,-11.524
1.53,-191.83,-11.925
1.56,-196.217,-12.097
1.59,-198.569,-12.04
1.63,-201.341,-12.59
1.66,-205.658,-12.796
1.69,-208.606,-12.75
1.72,-211.484,-13.162
1.76,-215.134,-13.277
1.79,-217.801,-13.357
1.82,-220.924,-13.632
1.85,-223.872,-13.781
1.89,-226.645,-13.964
1.92,-229.242,-14.159
1.95,-232.085,-14.319
1.98,-234.822,-14.434
2.02,-237.173,-14.526
2.05,-239.314,-14.697
2.08,-241.701,-14.949
2.11,-244.368,-15.098
2.15,-247.105,-15.339
2.18,-250.229,-15.602
2.21,-253.282,-15.774
2.24,-256.23,-15.958
2.28,-258.968,-16.072
2.31,-261.249,-16.152
2.34,-263.425,-16.267
2.37,-265.425,-16.37
2.41,-267.531,-16.507
2.44,-269.777,-16.599
2.47,-271.812,-16.782
2.51,-273.883,-16.977
2.54,-276.059,-17.115
2.57,-278.13,-17.252
2.6,-280.2,-17.412
2.64,-282.166,-17.561
2.67,-284.341,-17.699
2.7,-286.447,-17.825
2.73,-288.448,-17.962
2.77,-290.413,-18.1
2.8,-292.378,-18.203
2.83,-294.308,-18.329
2.86,-296.239,-18.421
2.9,-297.888,-18.558
2.93,-299.573,-18.707
2.96,-301.152,-18.787
2.99,-302.626,-18.89
3.03,-303.995,-18.925
3.06,-305.188,-19.005
3.09,-306.487,-19.108
3.12,-307.785,-19.165
3.16,-309.084,-19.234
3.19,-310.347,-19.314
3.22,-311.61,-19.36
3.25,-312.839,-19.394
3.29,-313.997,-19.474
3.32,-315.05,-19.578
3.35,-316.032,-19.669
3.38,-316.805,-19.738
3.42,-317.612,-19.83
3.45,-318.314,-19.887
3.48,-319.121,-19.91
3.51,-319.753,-19.898
3.55,-320.525,-19.898
3.58,-321.121,-19.887
3.61,-321.753,-19.956
3.64,-322.244,-20.013
3.68,-323.016,-20.116
3.71,-323.332,-20.013
3.74,-323.929,-20.208
3.77,-324.911,-20.15
3.81,-325.157,-20.173
3.84,-325.824,-20.253
3.87,-326.21,-20.23
3.9,-326.701,-20.322
3.94,-327.193,-20.322
3.97,-327.579,-20.368
4.0,-327.965,-20.437
4.03,-328.351,-20.494
4.07,-328.737,-20.494
4.1,-329.158,-20.528
4.13,-329.404,-20.448
4.16,-329.158,-20.471
4.2,-329.895,-20.609
4.23,-330.386,-20.448
4.26,-330.632,-20.483
4.29,-330.913,-20.414
4.33,-331.018,-20.448
4.36,-331.334,-20.437
4.39,-331.509,-20.425
4.42,-331.79,-20.357
4.46,-331.86,-20.334
4.49,-332.176,-20.276
4.52,-332.317,-20.162
4.55,-332.387,-20.139
4.59,-332.527,-20.024
4.62,-332.597,-19.956
4.65,-332.632,-19.933
4.68,-332.668,-19.956
4.72,-332.808,-19.921
4.75,-332.808,-19.91
4.78,-332.878,-19.864
4.81,-332.878,-19.784
4.85,-332.948,-19.715
4.88,-332.948,-19.635
4.91,-332.983,-19.555
4.95,-332.878,-19.497
4.98,-332.913,-19.44
5.01,-332.878,-19.326
5.04,-332.843,-19.188
5.08,-332.773,-19.085
5.11,-332.632,-19.005
5.14,-332.387,-18.925
5.17,-332.211,-18.867
5.21,-331.966,-18.741
5.24,-331.544,-18.65
5.27,-331.018,-18.524
5.3,-330.281,-18.375
5.34,-328.947,-18.146
5.37,-327.789,-18.02
5.4,-326.596,-17.779
5.43,-324.736,-17.607
5.47,-322.525,-17.527
5.5,-320.595,-17.424
5.53,-319.016,-17.252
5.56,-316.98,-17.034
5.6,-314.453,-16.931
5.63,-311.996,-16.759
5.66,-309.435,-16.576
5.69,-306.732,-16.45
5.73,-304.03,-16.278
5.76,-301.012,-16.106
5.79,-297.923,-15.923
5.82,-294.695,-15.683
5.86,-291.36,-15.454
5.89,-288.097,-15.282
5.92,-284.833,-15.121
5.95,-281.534,-14.961
5.99,-278.375,-14.858
6.02,-275.322,-14.732
6.05,-272.304,-14.594
6.08,-269.391,-14.434
6.12,-266.302,-14.262
6.15,-263.179,-14.102
6.18,-259.845,-13.953
6.21,-256.546,-13.792
6.25,-253.247,-13.598
6.28,-249.913,-13.392
6.31,-246.544,-13.197
6.34,-243.28,-12.979
6.38,-240.016,-12.784
6.41,-236.787,-12.601
6.44,-233.488,-12.464
6.47,-230.225,-12.315
6.51,-226.961,-12.086
6.54,-223.697,-11.879
6.57,-220.328,-11.696
6.6,-216.888,-11.513
6.64,-213.449,-11.295
6.67,-209.869,-11.1
6.7,-206.149,-10.929
6.73,-202.57,-10.699
6.77,-198.885,-10.425
6.8,-195.059,-10.184
6.83,-191.234,-9.943
6.86,-187.338,-9.714
6.9,-183.232,-9.554
6.93,-179.231,-9.382
6.96,-175.055,-9.199
6.99,-170.984,-9.004
7.03,-166.878,-8.718
7.06,-162.631,-8.477
7.09,-158.525,-8.214
7.12,-154.243,-7.904
7.16,-149.716,-7.698
7.19,-145.364,-7.469
7.22,-140.942,-7.217
7.25,-136.52,-6.965
7.29,-131.923,-6.736
7.32,-127.255,-6.541
7.35,-122.798,-6.301
7.39,-118.13,-6.049
7.42,-113.463,-5.877
7.45,-108.865,-5.693
7.48,-104.408,-5.453
7.52,-99.811,-5.178
7.55,-95.108,-4.983
7.58,-90.546,-4.766
7.61,-86.124,-4.513
7.65,-81.491,-4.273
7.68,-76.929,-4.135
7.71,-72.472,-3.861
7.74,-67.909,-3.689
7.78,-63.417,-3.414
7.81,-59.065,-3.162
7.84,-54.398,-2.875
7.87,-50.011,-2.715
7.91,-45.062,-2.406
7.94,-41.377,-2.486
7.97,-36.464,-1.764
8.0,-30.533,-1.844
8.04,-27.76,-1.718
8.07,-22.847,-1.146
8.1,-17.688,-1.054
8.13,-13.582,-0.859
8.17,-9.335,-0.561
8.2,-4.527,-0.389
8.23,-0.281,-0.298
8.26,4.247,-0.115
8.3,8.844,0.023
8.33,13.266,0.218
8.36,17.477,0.561
8.39,21.724,0.939
8.43,25.795,1.386
8.46,29.831,1.959
8.49,33.832,2.474
8.52,38.219,2.933
8.56,42.641,3.242
8.59,46.992,3.482
8.62,51.344,3.7
8.65,55.556,3.861
8.69,59.627,4.009
8.72,63.522,4.227
8.75,67.523,4.387
8.78,71.173,4.582
8.82,74.753,4.811
8.85,78.438,5.018
8.88,82.053,5.258
8.91,85.773,5.487
8.95,89.493,5.705
8.98,93.178,5.945
9.01,96.898,6.175
9.04,100.583,6.381
9.08,104.198,6.61
9.11,107.812,6.805
9.14,111.357,7.057
9.17,115.077,7.297
9.21,118.797,7.492
9.24,122.412,7.732
9.27,126.132,7.962
9.3,129.817,8.225
9.34,133.572,8.5
9.37,137.152,8.718
9.4,140.837,8.993
9.43,145.013,9.199
9.47,149.12,9.382
9.5,153.191,9.623
9.53,157.051,9.852
9.56,160.841,10.069
9.6,164.597,10.31
9.63,168.282,10.516
9.66,171.967,10.711
9.69,175.546,10.871
9.73,179.091,11.055
9.76,182.53,11.249
9.79,185.97,11.467
9.83,189.444,11.673
9.86,192.778,11.879
9.89,196.182,12.097
9.92,199.586,12.269
9.96,202.991,12.406
9.99,205.974,12.59
10.02,208.992,12.83
10.05,212.08,13.036
10.09,215.169,13.22
10.12,218.152,13.449
10.15,221.24,13.632
10.18,224.188,13.815
10.22,227.101,13.987
10.25,229.874,14.159
10.28,232.681,14.331
10.31,235.313,14.468
10.35,237.805,14.617
10.38,240.157,14.801
10.41,242.648,14.972
10.44,245.28,15.133
10.48,248.158,15.339
10.51,250.966,15.568
10.54,253.773,15.786
10.57,256.371,15.935
10.61,258.792,16.129
10.64,261.179,16.278
10.67,263.354,16.416
10.7,265.636,16.507
10.74,267.776,16.588
10.77,270.058,16.759
10.8,272.234,16.92
10.83,274.48,17.069
10.87,276.585,17.229
10.9,278.691,17.401
10.93,280.797,17.481
10.96,282.832,17.573
11.0,284.763,17.733
11.03,286.833,17.928
11.06,288.834,17.974
11.09,290.694,18.077
11.13,292.554,18.168
11.16,294.449,18.295
11.19,296.274,18.375
11.22,298.134,18.489
11.26,299.713,18.569
11.29,301.328,18.821
11.32,302.731,18.821
11.35,304.205,19.073
11.39,305.293,18.913
11.42,305.96,19.211
11.45,308.662,19.36
11.48,309.329,19.131
11.52,310.909,19.532
11.55,312.067,19.36
11.58,313.014,19.635
11.61,314.278,19.6
11.65,315.225,19.738
11.68,316.348,19.715
11.71,317.12,19.692
11.74,317.822,19.704
11.78,318.489,19.784
11.81,319.156,19.83
11.84,319.753,19.956
11.87,320.419,20.013
11.91,321.051,20.104
11.94,321.753,20.127
11.97,322.35,20.162
12.0,322.981,20.196
12.04,323.613,20.196
12.07,324.21,20.219
12.1,324.666,20.253
12.13,325.227,20.299
12.17,325.789,20.334
12.2,326.175,20.425
12.23,326.772,20.391
12.27,327.158,20.425
12.3,327.684,20.483
12.33,328.035,20.46
12.36,328.421,20.528
12.4,328.912,20.448
12.43,329.369,20.448
12.46,329.474,20.265
12.49,329.404,20.322
12.53,330.176,20.299
12.56,330.386,20.345
12.59,330.843,20.368
12.62,330.913,20.345
12.66,331.229,20.471
12.69,331.509,20.345
12.72,331.685,20.357
12.75,331.966,20.242
12.79,332.001,20.311
12.82,332.211,20.299
12.85,332.352,20.23
12.88,332.457,20.253
12.92,332.597,20.253
12.95,332.808,20.139
12.98,332.878,19.99
13.01,332.878,19.944
13.05,332.948,19.944
13.08,333.054,19.83
13.11,332.983,19.807
13.14,333.054,19.83
13.18,333.089,19.749
13.21,333.159,19.635
13.24,333.194,19.532
13.27,333.124,19.44
13.31,333.054,19.371
13.34,333.124,19.268
13.37,332.983,19.131
13.4,332.843,19.119
13.44,332.808,19.005
13.47,332.632,18.89
13.5,332.352,18.821
13.53,331.966,18.787
13.57,331.509,18.741
13.6,330.983,18.661
13.63,330.386,18.547
13.66,329.018,18.272
13.7,327.544,18.203
13.73,326.842,17.997
13.76,324.982,17.699
13.79,322.911,17.607
13.83,320.946,17.435
13.86,319.086,17.321
13.89,317.085,17.115
13.92,314.453,16.989
13.96,311.926,16.874
13.99,309.68,16.588
14.02,307.013,16.359
14.05,304.205,16.21
14.09,301.328,16.003
14.12,298.064,15.866
14.15,294.73,15.763
14.18,291.36,15.625
14.22,288.097,15.431
14.25,284.868,15.247
14.28,281.499,15.087
14.31,278.305,14.961
14.35,275.322,14.812
14.38,272.339,14.663
14.41,269.391,14.48
14.44,266.373,14.354
14.48,263.319,14.159
14.51,260.126,13.918
14.54,256.721,13.77
14.57,253.352,13.609
14.61,249.948,13.426
14.64,246.579,13.277
14.67,243.315,13.105
14.71,240.051,12.887
14.74,236.787,12.716
14.77,233.629,12.487
14.8,230.26,12.326
14.84,226.926,12.189
14.87,223.697,11.983
14.9,220.363,11.753
14.93,216.924,11.524
14.97,213.414,11.318
15.0,209.904,11.089
15.03,206.395,10.837
15.06,202.675,10.608
15.1,198.99,10.39
15.13,195.129,10.184
15.16,191.199,9.989
15.19,187.373,9.794
15.23,183.372,9.554
15.26,179.337,9.302
15.29,175.266,9.038
15.32,171.019,8.844
15.36,166.843,8.649
15.39,162.737,8.408
15.42,158.385,8.202
15.45,154.068,8.007
15.49,149.751,7.778
15.52,145.399,7.526
15.55,141.048,7.24
15.58,136.52,6.988
15.62,131.958,6.759
15.65,127.361,6.541
15.68,122.868,6.301
15.71,118.271,6.049
15.75,113.638,5.831
15.78,109.111,5.59
15.81,104.478,5.373
15.84,99.916,5.155
15.88,95.248,4.949
15.91,90.651,4.731
15.94,86.194,4.502
15.97,81.631,4.261
16.01,77.069,4.032
16.04,72.472,3.838
16.07,68.015,3.597
16.1,63.452,3.368
16.14,58.995,3.15
16.17,54.327,2.933
16.2,49.765,2.704
16.23,45.168,2.451
16.27,40.64,2.234
16.3,36.043,1.97
16.33,31.48,1.764
16.36,26.988,1.535
16.4,22.426,1.34
16.43,18.004,1.111
16.46,13.582,0.905
16.49,9.16,0.676
16.53,4.633,0.493
16.56,0.281,0.241
16.59,-4.352,0.103
16.62,-8.774,-0.103
16.66,-13.266,-0.286
16.69,-17.653,-0.687
16.72,-21.97,-0.951
16.75,-25.023,-1.409
16.79,-30.673,-2.371
16.82,-34.674,-2.28
16.85,-38.219,-3.104
16.88,-43.658,-3.265
16.92,-47.624,-3.425
16.95,-52.046,-3.666
16.98,-56.152,-3.746
17.01,-59.908,-3.918
17.05,-63.838,-4.147
17.08,-67.664,-4.307
17.11,-71.243,-4.536
17.15,-74.858,-4.72
17.18,-78.403,-4.983
17.21,-82.193,-5.247
17.24,-85.913,-5.453
17.28,-89.563,-5.716
17.31,-93.283,-5.991
17.34,-96.933,-6.209
17.37,-100.618,-6.427
17.41,-104.303,-6.553
17.44,-107.848,-6.747
17.47,-111.462,-6.942
17.5,-114.867,-7.171
17.54,-118.411,-7.458
17.57,-122.166,-7.721
17.6,-125.922,-7.893
17.63,-129.536,-8.133
17.67,-133.221,-8.351
17.7,-136.731,-8.592
17.73,-140.521,-8.89
17.76,-144.768,-9.176
17.8,-148.909,-9.382
17.83,-152.84,-9.646
17.86,-156.7,-9.909
17.89,-160.561,-10.104
17.93,-164.351,-10.31
17.96,-167.966,-10.47
17.99,-171.51,-10.688
18.02,-175.055,-10.883
18.06,-178.635,-11.043
18.09,-182.004,-11.284
18.12,-185.724,-11.456
18.15,-188.461,-11.513
18.19,-192.603,-12.017
18.22,-196.077,-11.834
18.25,-198.569,-12.177
18.28,-201.762,-12.429
18.32,-205.553,-12.716
18.35,-208.501,-12.716
18.38,-211.378,-13.105
18.41,-214.958,-13.208
18.45,-217.59,-13.369
18.48,-220.749,-13.586
18.51,-223.732,-13.724
18.54,-226.434,-13.896
18.58,-229.207,-14.125
18.61,-232.05,-14.308
18.64,-234.612,-14.468
18.67,-236.998,-14.652
18.71,-239.314,-14.846
18.74,-241.911,-14.995
18.77,-244.508,-15.133
18.8,-247.211,-15.35
18.84,-250.264,-15.545
18.87,-253.177,-15.717
18.9,-255.879,-15.946
18.93,-258.652,-16.129
18.97,-260.968,-16.21
19.0,-263.144,-16.301
19.03,-265.179,-16.37
19.06,-267.25,-16.507
19.1,-269.496,-16.668
19.13,-271.707,-16.828
19.16,-273.918,-17.0
19.19,-276.129,-17.149
19.23,-278.27,-17.286
19.26,-280.411,-17.424
19.29,-282.481,-17.561
19.32,-284.517,-17.722
19.36,-286.623,-17.871
19.39,-288.623,-17.997
19.42,-290.553,-18.1
19.45,-292.484,-18.226
19.49,-294.449,-18.317
19.52,-296.274,-18.398
19.55,-297.923,-18.524
19.59,-299.608,-18.65
19.62,-301.117,-18.776
19.65,-302.556,-18.856
19.68,-303.889,-18.925
19.72,-305.258,-19.005
19.75,-306.592,-19.062
19.78,-307.925,-19.119
19.81,-309.189,-19.199
19.85,-310.347,-19.314
19.88,-311.54,-19.429
19.91,-312.804,-19.52
19.94,-314.102,-19.612
19.98,-315.436,-19.635
20.01,-315.962,-19.612
20.04,-317.015,-19.818
20.07,-317.857,-19.692
20.11,-318.419,-19.875
20.14,-319.331,-19.841
20.17,-319.823,-19.898
20.2,-320.77,-19.933
20.24,-321.227,-19.887
20.27,-321.964,-19.956
20.3,-322.595,-19.933
20.33,-322.946,-19.944
20.37,-323.402,-20.047
20.4,-324.455,-20.162
20.43,-324.841,-20.07
20.46,-325.368,-20.185
20.5,-325.859,-20.185
20.53,-326.28,-20.276
20.56,-326.772,-20.288
20.59,-327.122,-20.368
20.63,-327.579,-20.357
20.66,-327.93,-20.368
20.69,-328.351,-20.425
20.72,-328.772,-20.414
20.76,-328.983,-20.46
20.79,-329.544,-20.471
20.82,-329.263,-20.368
20.85,-329.684,-20.574
20.89,-330.457,-20.471
20.92,-330.597,-20.437
20.95,-330.948,-20.379
20.98,-331.053,-20.391
21.02,-331.404,-20.379
21.05,-331.58,-20.265
21.08,-331.755,-20.288
21.11,-331.895,-20.242
21.15,-332.071,-20.242
21.18,-332.281,-20.196
21.21,-332.457,-20.139
21.24,-332.527,-20.082
21.28,-332.597,-20.024
21.31,-332.703,-19.956
21.34,-332.773,-19.921
21.37,-332.808,-19.921
21.41,-332.878,-19.887
21.44,-332.913,-19.818
21.47,-332.913,-19.784
21.5,-332.983,-19.726
21.54,-333.018,-19.646
21.57,-332.983,-19.589
21.6,-332.983,-19.474
21.63,-332.913,-19.44
21.67,-332.948,-19.337
21.7,-332.913,-19.199
21.73,-332.773,-19.108
21.76,-332.738,-19.005
21.8,-332.527,-18.902
21.83,-332.281,-18.867
21.86,-331.966,-18.844
21.89,-331.615,-18.764
21.93,-331.194,-18.592
21.96,-330.492,-18.443
21.99,-329.333,-18.18
22.03,-327.684,-18.008
22.06,-326.596,-17.882
22.09,-325.017,-17.584
22.12,-322.771,-17.481
22.16,-320.7,-17.344
22.19,-318.91,-17.229
22.22,-317.05,-17.046
22.25,-314.629,-16.863
22.29,-311.961,-16.782
22.32,-309.575,-16.565
22.35,-306.908,-16.336
22.38,-303.995,-16.21
22.42,-301.117,-16.038
22.45,-298.029,-15.809
22.48,-294.765,-15.625
22.51,-291.396,-15.442
22.55,-288.062,-15.305
22.58,-284.763,-15.144
22.61,-281.569,-14.972
22.64,-278.235,-14.892
22.68,-275.252,-14.789
22.71,-272.304,-14.617
22.74,-269.25,-14.514
22.77,-266.338,-14.308
22.81,-263.144,-14.125
22.84,-259.985,-13.964
22.87,-256.686,-13.77
22.9,-253.317,-13.598
22.94,-250.018,-13.403
22.97,-246.684,-13.231
23.0,-243.35,-13.071
23.03,-240.121,-12.865
23.07,-236.858,-12.624
23.1,-233.559,-12.498
23.13,-230.295,-12.303
23.16,-226.891,-12.154
23.2,-223.592,-11.994
23.23,-220.293,-11.765
23.26,-216.748,-11.536
23.29,-213.344,-11.307
23.33,-209.764,-11.089
23.36,-206.184,-10.894
23.39,-202.534,-10.665
23.42,-198.744,-10.47
23.46,-194.954,-10.253
23.49,-191.164,-10.001
23.52,-187.338,-9.726
23.55,-183.267,-9.474
23.59,-179.161,-9.29
23.62,-175.055,-9.096
23.65,-170.844,-8.912
23.68,-166.632,-8.729
23.72,-162.456,-8.477
23.75,-158.244,-8.202
23.78,-153.893,-7.962
23.81,-149.611,-7.732
23.85,-145.259,-7.492
23.88,-140.837,-7.274
23.91,-136.31,-7.057
23.94,-131.747,-6.839
23.98,-127.15,-6.61
24.01,-122.588,-6.346
24.04,-118.025,-6.06
24.07,-113.428,-5.842
24.11,-108.795,-5.59
24.14,-104.163,-5.361
24.17,-99.565,-5.155
24.2,-95.003,-4.937
24.24,-90.37,-4.685
24.27,-85.703,-4.513
24.3,-81.281,-4.284
24.33,-76.823,-4.067
24.37,-72.261,-3.826
24.4,-67.804,-3.654
24.43,-63.242,-3.402
24.47,-58.784,-3.219
24.5,-54.117,-2.944
24.53,-49.73,-2.761
24.56,-44.887,-2.406
24.6,-41.132,-2.463
24.63,-36.218,-1.764
24.66,-30.252,-1.89
24.69,-27.374,-1.787
24.73,-22.601,-1.168
24.76,-17.337,-1.134
24.79,-13.336,-0.962
24.82,-9.3,-0.642
24.86,-4.562,-0.435
24.89,-0.246,-0.355
24.92,4.141,-0.126
24.95,8.809,0.023
24.99,13.231,0.206
25.02,17.407,0.538
25.05,21.759,0.939
25.08,25.9,1.375
25.12,29.971,1.959
25.15,34.253,2.429
25.18,38.64,2.841
25.21,43.132,3.173
25.25,47.449,3.414
25.28,51.66,3.7
25.31,55.872,3.872
25.34,59.908,4.032
25.38,63.908,4.204
25.41,67.804,4.353
25.44,71.524,4.548
25.47,75.244,4.766
25.51,78.894,4.972
25.54,82.579,5.189
25.57,86.194,5.396
25.6,89.703,5.67
25.64,93.459,5.888
25.67,97.038,6.117
25.7,100.688,6.358
25.73,104.303,6.575
25.77,107.883,6.805
25.8,111.427,7.057
25.83,115.112,7.297
25.86,118.797,7.538
25.9,122.482,7.778
25.93,126.237,7.996
25.96,129.958,8.248
25.99,133.783,8.443
26.03,137.292,8.637
26.06,141.048,8.924
26.09,145.119,9.176
26.12,149.225,9.394
26.16,153.366,9.588
26.19,157.262,9.806
26.22,160.982,10.058
26.25,164.702,10.264
26.29,168.387,10.447
26.32,172.072,10.665
26.35,175.616,10.848
26.38,179.161,10.997
26.42,182.706,11.169
26.45,186.11,11.341
26.48,189.409,11.616
26.51,192.953,11.788
26.55,196.217,12.017
26.58,199.446,12.246
26.61,202.745,12.441
26.64,205.904,12.624
26.68,209.167,12.773
26.71,212.256,12.922
26.74,215.274,13.128
26.77,218.257,13.334
26.81,221.17,13.552
26.84,224.083,13.77
26.87,226.961,13.941
26.91,229.803,14.125
26.94,232.506,14.285
26.97,235.138,14.445
27.0,237.524,14.652
27.04,239.911,14.846
27.07,242.403,14.984
27.1,245.07,15.156
27.13,248.053,15.362
27.17,251.001,15.511
27.2,253.738,15.728
27.23,256.265,15.912
27.26,258.757,16.084
27.3,261.073,16.21
27.33,263.109,16.393
27.36,265.32,16.565
27.39,267.601,16.633
27.43,269.777,16.782
27.46,272.058,16.954
27.49,274.339,17.08
27.52,276.41,17.252
27.56,278.586,17.424
27.59,280.586,17.596
27.62,282.587,17.79
27.65,284.692,17.894
27.69,286.868,17.997
27.72,288.869,18.054
27.75,290.623,18.203
27.78,292.519,18.317
27.82,294.414,18.466
27.85,296.169,18.547
27.88,297.993,18.65
27.91,299.643,18.627
27.95,301.328,18.764
27.98,302.696,18.764
28.01,304.17,19.028
28.04,305.153,18.879
28.08,305.96,19.268
28.11,308.698,19.314
28.14,309.259,19.199
28.17,311.014,19.566
28.21,312.207,19.257
28.24,313.014,19.555
28.27,314.348,19.509
28.3,315.155,19.646
28.34,316.138,19.692
28.37,316.875,19.807
28.4,317.752,19.841
28.43,318.489,19.852
28.47,319.156,19.898
28.5,319.753,20.001
28.53,320.49,20.07
28.56,321.121,20.139
28.6,321.753,20.173
28.63,322.525,20.162
28.66,323.087,20.127
28.69,323.683,20.15
28.73,324.245,20.162
28.76,324.701,20.265
28.79,325.298,20.299
28.82,325.754,20.391
28.86,326.315,20.437
28.89,326.842,20.379
28.92,327.228,20.402
28.95,327.684,20.402
28.99,328.035,20.448
29.02,328.421,20.54
29.05,328.842,20.528
29.08,329.263,20.609
29.12,329.439,20.425
29.15,329.404,20.402
29.18,330.176,20.379
29.21,330.351,20.334
29.25,330.667,20.46
29.28,330.913,20.494
29.31,331.194,20.505
29.35,331.404,20.471
29.38,331.65,20.471
29.41,331.86,20.379
29.44,332.106,20.276
29.48,332.246,20.208
29.51,332.352,20.208
29.54,332.492,20.208
29.57,332.597,20.219
29.61,332.738,20.208
29.64,332.843,20.162
29.67,332.913,20.082
29.7,333.018,19.967
29.74,333.054,19.887
29.77,333.089,19.841
29.8,333.054,19.83
29.83,333.089,19.818
29.87,333.089,19.784
29.9,333.194,19.658
29.93,333.264,19.429
29.96,333.194,19.28
30.0,333.124,19.165
30.03,332.983,19.131
30.06,332.913,19.096
30.09,332.738,19.108
30.13,332.597,19.005
30.16,332.317,18.947
30.19,332.141,18.821
30.22,331.685,18.684
30.26,331.123,18.592
30.29,330.457,18.524
30.32,329.298,18.306
30.35,327.509,18.1
30.39,326.526,18.042
30.42,325.122,17.687
30.45,322.981,17.573
30.48,321.121,17.412
30.52,319.051,17.275
30.55,317.05,17.115
30.58,314.558,16.954
30.61,312.032,16.84
30.65,309.61,16.668
30.68,306.978,16.427
30.71,304.1,16.21
30.74,301.082,16.049
30.78,297.818,15.935
30.81,294.589,15.82
30.84,291.255,15.66
30.87,287.956,15.511
30.91,284.798,15.328
30.94,281.604,15.121
30.97,278.516,14.915
31.0,275.427,14.743
31.04,272.339,14.663
31.07,269.461,14.56
31.1,266.443,14.377
31.13,263.249,14.262
31.17,260.056,14.067
31.2,256.827,13.827
31.23,253.458,13.621
31.26,250.124,13.46
31.3,246.825,13.288
31.33,243.596,13.094
31.36,240.297,12.887
31.39,237.033,12.716
31.43,233.734,12.544
31.46,230.435,12.361
31.49,227.101,12.177
31.52,223.767,11.971
31.56,220.328,11.765
31.59,216.959,11.547
31.62,213.414,11.364
31.65,209.94,11.112
31.69,206.36,10.871
31.72,202.71,10.642
31.75,198.99,10.413
31.79,195.094,10.207
31.82,191.304,9.978
31.85,187.408,9.76
31.88,183.302,9.554
31.92,179.301,9.336
31.95,175.195,9.084
31.98,171.054,8.821
32.01,166.843,8.58
32.05,162.526,8.34
32.08,158.279,8.099
32.11,153.928,7.881
32.14,149.506,7.71
32.18,145.154,7.515
32.21,140.767,7.263
32.24,136.38,6.999
32.27,131.853,6.736
32.31,127.255,6.53
32.34,122.763,6.312
32.37,118.166,6.094
32.4,113.463,5.911
32.44,108.936,5.682
32.47,104.408,5.407
32.5,99.811,5.132
32.53,95.143,4.903
32.57,90.581,4.685
32.6,86.053,4.433
32.63,81.491,4.227
32.66,76.823,4.009
32.7,72.191,3.803
32.73,67.769,3.597
32.76,63.242,3.345
32.79,58.679,3.139
32.83,54.152,2.91
32.86,49.73,2.658
32.89,45.062,2.406
32.92,40.5,2.234
32.96,35.867,2.005
32.99,31.305,1.787
33.02,26.813,1.512
33.05,22.215,1.329
33.09,17.653,1.123
33.12,13.231,0.894
33.15,8.774,0.653
33.18,4.352,0.504
33.22,0.0,0.286
33.25,-4.457,0.149
33.28,-8.914,-0.103
33.31,-13.231,-0.229
33.35,-17.653,-0.71
33.38,-21.759,-0.848
33.41,-25.128,-1.535
33.44,-31.129,-2.257
33.48,-34.358,-2.211
33.51,-38.394,-3.196
33.54,-43.729,-3.276
33.57,-47.905,-3.482
33.61,-52.257,-3.677
33.64,-56.398,-3.792
33.67,-60.223,-3.929
33.7,-64.259,-4.135
33.74,-68.12,-4.284
33.77,-71.664,-4.536
33.8,-75.244,-4.743
33.83,-78.964,-4.972
33.87,-82.79,-5.132
33.9,-86.369,-5.361
33.93,-89.949,-5.579
33.96,-93.564,-5.865
34.0,-97.214,-6.083
34.03,-100.758,-6.358
34.06,-104.303,-6.61
34.09,-107.883,-6.816
34.13,-111.427,-7.057
34.16,-115.147,-7.251
34.19,-118.762,-7.48
34.23,-122.377,-7.744
34.26,-126.132,-7.973
34.29,-129.887,-8.156
34.32,-133.432,-8.363
34.36,-137.012,-8.569
34.39,-140.767,-8.867
34.42,-144.978,-9.142
34.45,-149.084,-9.371
34.49,-152.98,-9.657
34.52,-156.946,-9.863
34.55,-160.666,-10.092
34.58,-164.421,-10.299
34.62,-168.071,-10.505
34.65,-171.651,-10.665
34.68,-175.23,-10.894
34.71,-178.74,-10.997
34.75,-182.074,-11.284
34.78,-185.619,-11.433
34.81,-188.426,-11.662
34.84,-192.989,-12.04
34.88,-195.901,-11.925
34.91,-198.744,-12.361
34.94,-202.113,-12.406
34.97,-205.798,-12.727
35.01,-208.852,-12.681
35.04,-211.659,-13.071
35.07,-215.134,-13.208
35.1,-217.906,-13.369
35.14,-220.995,-13.575
35.17,-223.837,-13.689
35.2,-226.434,-13.804
35.23,-228.961,-14.045
35.27,-231.769,-14.205
35.3,-234.436,-14.4
35.33,-236.998,-14.537
35.36,-239.384,-14.709
35.4,-241.876,-14.904
35.43,-244.473,-15.087
35.46,-247.176,-15.305
35.49,-250.124,-15.568
35.53,-253.107,-15.74
35.56,-255.949,-15.969
35.59,-258.687,-16.106
35.62,-260.933,-16.21
35.66,-263.144,-16.324
35.69,-265.179,-16.37
35.72,-267.32,-16.485
35.75,-269.601,-16.645
35.79,-271.777,-16.805
35.82,-273.918,-16.966
35.85,-276.164,-17.103
35.88,-278.305,-17.218
35.92,-280.305,-17.344
35.95,-282.306,-17.493
35.98,-284.447,-17.642
36.01,-286.482,-17.813
36.05,-288.553,-17.974
36.08,-290.448,-18.134
36.11,-292.308,-18.283
36.14,-294.203,-18.375
36.18,-296.028,-18.466
36.21,-297.783,-18.569
36.24,-299.467,-18.661
36.27,-301.082,-18.764
36.31,-302.556,-18.821
36.34,-303.819,-18.913
36.37,-305.118,-19.028
36.4,-306.487,-19.085
36.44,-307.855,-19.142
36.47,-309.189,-19.222
36.5,-310.417,-19.303
36.53,-311.575,-19.371
36.57,-312.733,-19.497
36.6,-313.962,-19.555
36.63,-314.944,-19.623
36.67,-315.962,-19.704
36.7,-316.84,-19.784
36.73,-317.612,-19.818
36.76,-318.349,-19.875
36.8,-319.051,-19.944
36.83,-319.753,-19.978
36.86,-320.314,-20.047
36.89,-321.016,-20.162
36.93,-321.648,-20.139
36.96,-322.49,-20.15
36.99,-322.701,-20.024
37.02,-323.438,-20.242
37.06,-324.35,-20.162
37.09,-324.666,-20.253
37.12,-325.403,-20.23
37.15,-325.684,-20.265
37.19,-326.245,-20.334
37.22,-326.666,-20.345
37.25,-327.158,-20.414
37.28,-327.579,-20.414
37.32,-328.035,-20.437
37.35,-328.491,-20.402
37.38,-328.737,-20.414
37.41,-329.088,-20.46
37.45,-329.474,-20.402
37.48,-329.228,-20.357
37.51,-329.86,-20.494
37.54,-330.386,-20.379
37.58,-330.632,-20.414
37.61,-330.948,-20.334
37.64,-331.088,-20.368
37.67,-331.404,-20.334
37.71,-331.474,-20.345
37.74,-331.755,-20.345
37.77,-331.966,-20.253
37.8,-332.036,-20.253
37.84,-332.211,-20.23
37.87,-332.422,-20.162
37.9,-332.527,-20.07
37.93,-332.632,-20.024
37.97,-332.632,-20.013
38.0,-332.738,-19.956
38.03,-332.808,-19.887
38.06,-332.843,-19.852
38.1,-332.878,-19.818
38.13,-332.913,-19.738
38.16,-332.948,-19.681
38.19,-333.018,-19.6
38.23,-332.948,-19.543
38.26,-332.948,-19.497
38.29,-332.913,-19.394
38.32,-332.843,-19.36
38.36,-332.843,-19.257
38.39,-332.703,-19.154
38.42,-332.632,-19.096
38.45,-332.422,-18.993
38.49,-332.176,-18.947
38.52,-332.001,-18.833
38.55,-331.509,-18.695
38.58,-331.053,-18.592
38.62,-330.386,-18.432
38.65,-329.053,-18.203
38.68,-327.684,-18.146
38.71,-326.736,-17.882
38.75,-324.982,-17.607
38.78,-322.736,-17.504
38.81,-320.735,-17.355
38.84,-319.016,-17.252
38.88,-317.015,-17.046
38.91,-314.488,-16.885
38.94,-311.961,-16.737
38.97,-309.54,-16.507
39.01,-306.873,-16.336
39.04,-303.995,-16.198
39.07,-300.977,-16.026
39.11,-297.748,-15.889
39.14,-294.519,-15.683
39.17,-291.185,-15.488
39.2,-287.921,-15.328
39.24,-284.587,-15.179
39.27,-281.288,-15.098
39.3,-278.235,-14.949
39.33,-275.182,-14.812
39.37,-272.198,-14.675
39.4,-269.25,-14.491
39.43,-266.267,-14.319
39.46,-263.144,-14.136
39.5,-259.985,-13.918
39.53,-256.686,-13.77
39.56,-253.352,-13.575
39.59,-250.053,-13.38
39.63,-246.684,-13.243
39.66,-243.456,-13.036
39.69,-240.262,-12.819
39.72,-236.928,-12.647
39.76,-233.664,-12.487
39.79,-230.435,-12.28
39.82,-227.066,-12.143
39.85,-223.732,-11.948
39.89,-220.398,-11.719
39.92,-216.959,-11.49
39.95,-213.379,-11.272
39.98,-209.764,-11.1
40.02,-206.255,-10.848
40.05,-202.534,-10.619
40.08,-198.779,-10.436
40.11,-194.919,-10.218
40.15,-191.093,-10.035
40.18,-187.163,-9.829
40.21,-183.267,-9.6
40.24,-179.266,-9.348
40.28,-175.125,-9.119
40.31,-170.914,-8.878
40.34,-166.492,-8.66
40.37,-162.315,-8.431
40.41,-158.139,-8.202
40.44,-153.928,-7.95
40.47,-149.646,-7.721
40.5,-145.259,-7.458
40.54,-140.732,-7.217
40.57,-136.275,-7.011
40.6,-131.677,-6.793
40.63,-127.115,-6.61
40.67,-122.658,-6.358
40.7,-118.025,-6.14
40.73,-113.428,-5.934
40.76,-108.865,-5.682
40.8,-104.303,-5.464
40.83,-99.67,-5.27
40.86,-95.108,-5.063
40.89,-90.546,-4.777
40.93,-86.018,-4.548
40.96,-81.491,-4.296
40.99,-76.964,-4.067
41.02,-72.401,-3.803
41.06,-67.839,-3.608
41.09,-63.206,-3.356
41.12,-58.784,-3.15
41.15,-54.082,-2.875
41.19,-49.66,-2.726
41.22,-44.817,-2.36
41.25,-41.096,-2.451
41.28,-36.359,-1.707
41.32,-30.392,-1.776
41.35,-27.409,-1.684
41.38,-22.601,-1.1
41.41,-17.302,-1.1
41.45,-13.231,-0.939
41.48,-9.16,-0.63
41.51,-4.317,-0.458
41.55,-0.105,-0.378
41.58,4.282,-0.16
41.61,8.879,-0.046
41.64,13.126,0.172
41.68,17.302,0.493
41.71,21.584,0.882
41.74,25.69,1.329
41.77,29.796,1.89
41.81,33.797,2.44
41.84,38.324,2.91
41.87,42.886,3.196
41.9,47.133,3.448
41.94,51.555,3.677
41.97,55.801,3.838
42.0,59.802,4.021
42.03,63.768,4.239
42.07,67.734,4.399
42.1,71.524,4.525
42.13,75.139,4.674
42.16,78.648,4.892
42.2,82.404,5.121
42.23,86.018,5.384
42.26,89.703,5.648
42.29,93.283,5.911
42.33,96.863,6.186
42.36,100.653,6.369
42.39,104.163,6.575
42.42,107.742,6.873
42.46,111.392,7.068
42.49,114.937,7.343
42.52,118.797,7.549
42.55,122.412,7.79
42.59,126.167,7.973
42.62,129.852,8.225
42.65,133.713,8.374
42.68,136.485,8.569
42.72,141.258,9.13
42.75,145.084,8.993
42.78,148.663,9.542
42.81,153.366,9.668
42.85,156.981,9.852
42.88,160.876,10.104
42.91,164.737,10.241
42.94,168.317,10.447
42.98,171.931,10.677
43.01,175.581,10.871
43.04,179.021,11.089
43.07,182.495,11.261
43.11,185.934,11.444
43.14,189.444,11.639
43.17,192.743,11.822
43.2,196.147,12.028
43.24,199.446,12.257
43.27,202.71,12.464
43.3,205.904,12.67
43.33,209.132,12.865
43.37,212.291,13.048
43.4,215.414,13.254
43.43,218.503,13.414
43.46,221.416,13.632
43.5,224.258,13.861
43.53,227.136,13.999
43.56,229.909,14.171
43.59,232.857,14.297
43.63,235.384,14.4
43.66,237.805,14.56
43.69,240.157,14.709
43.72,242.508,14.915
43.76,245.07,15.133
43.79,247.983,15.35
43.82,250.966,15.511
43.86,253.738,15.683
43.89,256.3,15.854
43.92,258.792,16.049
43.95,261.249,16.187
43.99,263.354,16.347
44.02,265.565,16.507
44.05,267.741,16.656
44.08,269.952,16.805
44.12,272.163,16.954
44.15,274.339,17.137
44.18,276.41,17.286
44.21,278.586,17.435
44.25,280.621,17.55
44.28,282.727,17.71
44.31,284.798,17.79
44.34,286.974,17.882
44.38,288.869,17.985
44.41,290.834,18.146
44.44,292.659,18.249
44.47,294.449,18.409
44.51,296.133,18.547
44.54,297.923,18.695
44.57,299.608,18.684
44.6,301.292,18.81
44.64,302.696,18.776
44.67,304.17,19.005
44.7,305.118,18.844
44.73,305.96,19.222
44.77,308.452,19.291
44.8,309.119,19.245
44.83,311.119,19.509
44.86,312.172,19.257
44.9,313.155,19.589
44.93,314.418,19.486
44.96,315.26,19.704
44.99,316.418,19.658
45.03,317.085,19.738
45.06,317.928,19.818
45.09,318.7,19.807
45.12,319.261,19.841
45.16,319.858,19.967
45.19,320.525,20.036
45.22,321.121,20.082
45.25,321.683,20.173
45.29,322.385,20.23
45.32,322.981,20.242
45.35,323.543,20.299
45.38,324.139,20.334
45.42,324.631,20.345
45.45,325.157,20.414
45.48,325.824,20.334
45.51,326.14,20.379
45.55,326.772,20.425
45.58,327.193,20.368
45.61,327.684,20.379
45.64,328.07,20.322
45.68,328.421,20.414
45.71,328.842,20.391
45.74,329.228,20.46
45.77,329.298,20.425
45.81,329.263,20.483
45.84,330.211,20.425
45.87,330.386,20.299
45.9,330.702,20.425
45.94,330.983,20.368
45.97,331.194,20.391
46.0,331.369,20.414
46.03,331.685,20.368
46.07,331.931,20.208
46.1,332.106,20.173
46.13,332.176,20.162
46.16,332.281,20.23
46.2,332.422,20.23
46.23,332.597,20.23
46.26,332.703,20.219
46.3,332.843,20.162
46.33,333.054,19.944
46.36,333.018,19.852
46.39,333.054,19.795
46.43,333.054,19.738
46.46,333.054,19.749
46.49,333.018,19.795
46.52,333.089,19.726
46.56,333.194,19.589
46.59,333.124,19.429
46.62,333.089,19.348
46.65,333.018,19.326
46.69,332.983,19.222
46.72,332.808,19.154
46.75,332.703,19.131
46.78,332.457,19.096
46.82,332.281,19.005
46.85,332.036,18.867
46.88,331.79,18.673
46.91,331.123,18.524
46.95,330.457,18.421
46.98,329.193,18.134
47.01,327.614,18.088
47.04,326.807,18.02
47.08,325.157,17.71
47.11,323.051,17.561
47.14,321.191,17.355
47.17,319.261,17.298
47.21,317.471,17.149
47.24,315.331,17.011
47.27,312.558,16.782
47.3,309.75,16.702
47.34,307.294,16.427
47.37,304.205,16.221
47.4,301.222,16.049
47.43,297.888,15.866
47.47,294.589,15.763
47.5,291.36,15.488
47.53,287.991,15.373
47.56,284.833,15.202
47.6,281.464,15.075
47.63,278.305,14.938
47.66,275.182,14.823
47.69,272.304,14.675
47.73,269.215,14.526
47.76,266.232,14.365
47.79,263.039,14.171
47.82,259.775,14.067
47.86,256.546,13.838
47.89,253.282,13.621
47.92,249.983,13.403
47.95,246.614,13.243
47.99,243.385,13.071
48.02,240.157,12.899
48.05,236.858,12.739
48.08,233.699,12.544
48.12,230.47,12.315
48.15,227.171,12.109
48.18,223.943,11.891
48.21,220.503,11.673
48.25,217.029,11.49
48.28,213.589,11.307
48.31,209.94,11.123
48.34,206.325,10.906
48.38,202.71,10.665
48.41,198.99,10.413
48.44,195.2,10.15
48.47,191.304,9.921
48.51,187.444,9.737
48.54,183.443,9.531
48.57,179.372,9.313
48.6,175.336,9.096
48.64,171.265,8.832
48.67,167.018,8.592
48.7,162.772,8.363
48.74,158.42,8.133
48.77,154.068,7.939
48.8,149.716,7.687
48.83,145.224,7.503
48.87,140.802,7.263
48.9,136.415,6.965
48.93,131.923,6.713
48.96,127.325,6.461
49.0,122.728,6.278
49.03,118.166,6.094
49.06,113.638,5.865
49.09,109.006,5.659
49.13,104.584,5.441
49.16,100.056,5.178
49.19,95.424,4.937
49.22,90.897,4.72
49.26,86.264,4.513
49.29,81.702,4.296
49.32,77.139,4.044
49.35,72.542,3.838
49.39,68.12,3.574
49.42,63.522,3.299
49.45,58.82,3.082
49.48,54.222,2.887
49.52,49.625,2.658
49.55,45.027,2.417
49.58,40.43,2.199
49.61,35.867,1.959
49.65,31.375,1.707
49.68,26.883,1.443
49.71,22.321,1.249
49.74,17.793,1.065
49.78,13.301,0.859
49.81,8.949,0.664
49.84,4.387,0.481
49.87,0.0,0.321
49.91,-4.527,0.126
49.94,-8.809,-0.057
49.97,-13.336,-0.298
50.0,-17.477,-0.584
50.04,-21.899,-1.008
50.07,-24.918,-1.272
50.1,-30.182,-2.348
50.13,-34.85,-2.245
50.17,-37.727,-3.001
50.2,-43.343,-3.379
50.23,-47.484,-3.425
50.26,-51.801,-3.803
50.3,-56.187,-3.849
50.33,-59.978,-3.987
50.36,-63.979,-4.17
50.39,-67.944,-4.342
50.43,-71.559,-4.548
50.46,-75.209,-4.777
50.49,-78.719,-5.029
50.52,-82.614,-5.258
50.56,-86.299,-5.453
50.59,-89.914,-5.67
50.62,-93.599,-5.877
50.65,-97.319,-6.083
50.69,-100.864,-6.346
50.72,-104.478,-6.564
50.75,-107.953,-6.805
50.78,-111.568,-7.022
50.82,-115.218,-7.206
50.85,-118.692,-7.435
50.88,-122.307,-7.71
50.91,-125.992,-7.95
50.95,-129.712,-8.202
50.98,-133.292,-8.42
51.01,-136.766,-8.672
51.04,-140.697,-8.912
51.08,-144.838,-9.153
51.11,-149.014,-9.382
51.14,-152.945,-9.611
51.18,-156.876,-9.852
51.21,-160.701,-10.058
51.24,-164.421,-10.241
51.27,-167.966,-10.459
51.31,-171.651,-10.642
51.34,-175.16,-10.791
51.37,-178.705,-11.02
51.4,-182.109,-11.204
51.44,-185.759,-11.433
51.47,-188.496,-11.524
51.5,-192.567,-12.051
51.53,-196.323,-11.925
51.57,-198.604,-12.177
51.6,-201.973,-12.487
51.63,-205.904,-12.67
51.66,-208.746,-12.647
51.7,-211.659,-13.094
51.73,-215.134,-13.162
51.76,-217.801,-13.346
51.79,-220.959,-13.598
51.83,-223.943,-13.747
51.86,-226.575,-13.953
51.89,-229.312,-14.193
51.92,-232.19,-14.365
51.96,-234.857,-14.526
51.99,-237.279,-14.617
52.02,-239.63,-14.801
52.05,-242.192,-14.949
52.09,-244.824,-15.075
52.12,-247.386,-15.316
52.15,-250.369,-15.568
52.18,-253.282,-15.751
52.22,-256.125,-15.992
52.25,-258.827,-16.129
52.28,-261.143,-16.233
52.31,-263.319,-16.324
52.35,-265.425,-16.381
52.38,-267.461,-16.53
52.41,-269.777,-16.714
52.44,-271.988,-16.84
52.48,-274.199,-16.989
52.51,-276.34,-17.183
52.54,-278.445,-17.321
52.57,-280.656,-17.39
52.61,-282.622,-17.538
52.64,-284.727,-17.687
52.67,-286.763,-17.836
52.7,-288.728,-18.008
52.74,-290.764,-18.146
52.77,-292.694,-18.214
52.8,-294.414,-18.317
52.83,-296.239,-18.409
52.87,-297.923,-18.512
52.9,-299.503,-18.627
52.93,-301.082,-18.707
52.96,-302.451,-18.821
53.0,-303.784,-18.856
53.03,-305.048,-18.913
53.06,-306.451,-18.959
53.09,-307.82,-19.016
53.13,-309.119,-19.131
53.16,-310.382,-19.234
53.19,-311.54,-19.394
53.22,-312.804,-19.543
53.26,-314.067,-19.6
53.29,-315.05,-19.658
53.32,-316.032,-19.726
53.35,-316.875,-19.784
53.39,-317.647,-19.83
53.42,-318.314,-19.91
53.45,-319.156,-19.933
53.48,-319.788,-19.967
53.52,-320.595,-19.967
53.55,-321.121,-19.967
53.58,-321.893,-19.99
53.62,-322.455,-19.933
53.65,-323.087,-20.024
53.68,-323.297,-19.978
53.71,-323.999,-20.185
53.75,-324.911,-20.104
53.78,-325.192,-20.208
53.81,-325.894,-20.242
53.84,-326.21,-20.288
53.88,-326.772,-20.368
53.91,-327.158,-20.402
53.94,-327.684,-20.471
53.97,-328.0,-20.471
54.01,-328.456,-20.505
54.04,-328.807,-20.505
54.07,-329.158,-20.586
54.1,-329.439,-20.528
54.14,-329.263,-20.528
54.17,-330.035,-20.574
54.2,-330.492,-20.425
54.23,-330.702,-20.471
54.27,-330.983,-20.379
54.3,-331.158,-20.379
54.33,-331.474,-20.334
54.36,-331.615,-20.276
54.4,-331.79,-20.242
54.43,-331.966,-20.265
54.46,-332.106,-20.276
54.49,-332.317,-20.253
54.53,-332.492,-20.15
54.56,-332.562,-20.093
54.59,-332.668,-20.047
54.62,-332.773,-19.978
54.66,-332.808,-19.933
54.69,-332.878,-19.875
54.72,-332.913,-19.818
54.75,-333.018,-19.726
54.79,-333.018,-19.635
54.82,-333.018,-19.578
54.85,-333.054,-19.497
54.88,-333.018,-19.429
54.92,-332.948,-19.406
54.95,-332.878,-19.429
54.98,-332.843,-19.44
55.01,-332.843,-19.36
55.05,-332.773,-19.268
55.08,-332.738,-19.108
55.11,-332.527,-18.959
55.14,-332.352,-18.833
55.18,-332.036,-18.684
55.21,-331.685,-18.547
55.24,-331.053,-18.466
55.27,-330.281,-18.306
55.31,-328.807,-18.123
55.34,-327.754,-18.065
55.37,-326.701,-17.768
55.4,-324.876,-17.584
55.44,-322.771,-17.481
55.47,-320.805,-17.412
55.5,-319.156,-17.264
55.53,-317.155,-17.069
55.57,-314.629,-16.954
55.6,-312.137,-16.771
55.63,-309.505,-16.542
55.66,-306.697,-16.404
55.7,-303.925,-16.221
55.73,-300.977,-16.049
55.76,-297.853,-15.877
55.79,-294.589,-15.694
55.83,-291.29,-15.511
55.86,-288.097,-15.305
55.89,-284.657,-15.179
55.92,-281.393,-15.064
55.96,-278.235,-14.904
55.99,-275.111,-14.801
56.02,-272.128,-14.663
56.06,-269.18,-14.48
56.09,-266.127,-14.319
56.12,-262.933,-14.171
56.15,-259.81,-13.941
56.19,-256.441,-13.735
56.22,-253.036,-13.563
56.25,-249.702,-13.414
56.28,-246.404,-13.243
56.32,-243.175,-13.048
56.35,-239.841,-12.899
56.38,-236.682,-12.727
56.41,-233.559,-12.509
56.45,-230.26,-12.303
56.48,-226.996,-12.143
56.51,-223.662,-11.983
56.54,-220.363,-11.788
56.58,-216.994,-11.582
56.61,-213.554,-11.352
56.64,-209.94,-11.089
56.67,-206.29,-10.86
56.71,-202.57,-10.631
56.74,-198.814,-10.413
56.77,-194.919,-10.184
56.8,-191.129,-9.966
56.84,-187.128,-9.749
56.87,-183.162,-9.52
56.9,-179.091,-9.279
56.93,-174.985,-9.073
56.97,-170.844,-8.867
57.0,-166.632,-8.66
57.03,-162.526,-8.408
57.06,-158.244,-8.156
57.1,-153.928,-7.904
57.13,-149.681,-7.641
57.16,-145.259,-7.412
57.19,-140.697,-7.206
57.23,-136.205,-6.988
57.26,-131.572,-6.782
57.29,-126.974,-6.564
57.32,-122.482,-6.346
57.36,-117.885,-6.094
57.39,-113.393,-5.819
57.42,-108.725,-5.602
57.45,-104.198,-5.453
57.49,-99.741,-5.178
57.52,-95.143,-4.96
57.55,-90.651,-4.685
57.58,-86.089,-4.456
57.62,-81.491,-4.284
57.65,-77.034,-4.09
57.68,-72.331,-3.849
57.71,-67.874,-3.666
57.75,-63.312,-3.402
57.78,-58.82,-3.196
57.81,-54.152,-2.933
57.84,-49.73,-2.726
57.88,-44.817,-2.394
57.91,-41.132,-2.417
57.94,-36.078,-1.684
57.97,-30.182,-1.844
58.01,-27.199,-1.718
58.04,-22.356,-1.168
58.07,-17.197,-1.1
58.1,-13.126,-0.905
58.14,-8.914,-0.63
58.17,-4.317,-0.447
58.2,-0.035,-0.332
58.23,4.422,-0.149
58.27,8.984,-0.034
58.3,13.336,0.195
58.33,17.548,0.538
58.36,21.864,0.916
58.4,25.935,1.375
58.43,29.971,1.936
58.46,34.042,2.451
58.5,38.394,2.921
58.53,42.816,3.242
58.56,47.203,3.482
58.59,51.555,3.666
58.63,55.801,3.861
58.66,59.837,4.009
58.69,63.803,4.204
58.72,67.874,4.365
58.76,71.524,4.548
58.79,75.209,4.766
58.82,78.859,4.972
58.85,82.509,5.224
58.89,86.159,5.476
58.92,89.774,5.739
58.95,93.459,5.968
58.98,97.214,6.175
59.02,100.934,6.335
59.05,104.514,6.541
59.08,108.199,6.77
59.11,111.778,7.022
59.15,115.358,7.297
59.18,118.938,7.526
59.21,122.588,7.767
59.24,126.308,7.985
59.28,130.133,8.191
59.31,133.923,8.385
59.34,137.503,8.592
59.37,141.223,8.867
59.41,145.224,9.142
59.44,149.225,9.405
59.47,153.296,9.657
59.5,157.262,9.863
59.54,161.122,10.024
59.57,164.772,10.218
59.6,168.422,10.459
59.63,172.107,10.688
59.67,175.722,10.883
59.7,179.231,11.055
59.73,182.671,11.249
59.76,186.145,11.433
59.8,189.655,11.627
59.83,193.059,11.799
59.86,196.393,12.028
59.89,199.692,12.269
59.93,202.921,12.464
59.96,206.184,12.624
59.99,209.308,12.784
60.02,212.396,12.956
60.06,215.414,13.14
60.09,218.468,13.323
60.12,221.451,13.529
60.15,224.399,13.712
60.19,227.136,13.907
60.22,229.909,14.159
60.25,232.646,14.342
60.28,235.243,14.514
60.32,237.84,14.617
60.35,240.262,14.743
60.38,242.719,14.938
60.41,245.351,15.133
60.45,248.158,15.408
60.48,251.141,15.637
60.51,253.984,15.786
60.54,256.511,15.923
60.58,259.003,16.106
60.61,261.284,16.221
60.64,263.354,16.37
60.67,265.565,16.496
60.71,267.671,16.679
60.74,269.952,16.84
60.77,272.409,16.908
60.8,274.585,16.989
60.84,276.691,17.149
60.87,278.902,17.286
60.9,280.867,17.435
60.94,282.832,17.619
60.97,284.868,17.768
61.0,286.938,17.905
61.03,289.009,18.008
61.07,290.904,18.146
61.1,292.624,18.272
61.13,294.379,18.455
61.16,296.274,18.524
61.2,298.029,18.661
61.23,299.748,18.718
61.26,301.503,18.799
61.29,302.977,18.73
61.33,304.521,18.925
61.36,305.223,18.776
61.39,306.206,19.199
61.42,308.698,19.188
61.46,309.294,19.165
61.49,311.049,19.509
61.52,312.172,19.326
61.55,313.4,19.509
61.59,314.523,19.383
61.62,315.331,19.623
61.65,316.278,19.738
61.68,317.155,19.852
61.72,317.892,19.852
61.75,318.524,19.933
61.78,319.261,19.956
61.81,319.998,19.956
61.85,320.56,20.001
61.88,321.156,20.07
61.91,321.823,20.093
61.94,322.455,20.139
61.98,322.946,20.23
62.01,323.648,20.276
62.04,324.245,20.242
62.07,324.771,20.276
62.11,325.192,20.345
62.14,325.859,20.402
62.17,326.35,20.345
62.2,326.807,20.391
62.24,327.263,20.414
62.27,327.789,20.379
62.3,328.035,20.311
62.33,328.386,20.414
62.37,328.842,20.368
62.4,329.123,20.517
62.43,329.333,20.471
62.46,329.263,20.54
62.5,330.141,20.597
62.53,330.421,20.357
62.56,330.667,20.483
62.59,331.018,20.414
62.63,331.158,20.414
62.66,331.439,20.391
62.69,331.65,20.379
62.72,331.86,20.379
62.76,332.071,20.357
62.79,332.317,20.242
62.82,332.527,20.116
62.85,332.597,20.036
62.89,332.632,20.036
62.92,332.738,20.047
62.95,332.808,20.047
62.98,332.913,20.047
63.02,333.054,19.898
63.05,333.054,19.887
63.08,333.124,19.807
63.11,333.089,19.784
63.15,333.124,19.795
63.18,333.124,19.738
63.21,333.124,19.669
63.24,333.159,19.612
63.28,333.124,19.486
63.31,333.089,19.36
63.34,333.054,19.222
63.38,332.983,19.085
63.41,332.878,18.925
63.44,332.492,18.902
63.47,332.281,18.925
63.51,332.106,18.821
63.54,331.65,18.673
63.57,331.053,18.569
63.6,330.421,18.432
63.64,328.877,18.191
63.67,327.509,18.191
63.7,326.736,17.997
63.73,324.701,17.779
63.77,322.841,17.664
63.8,320.981,17.447
63.83,319.156,17.298
63.86,317.085,17.103
63.9,314.594,16.966
63.93,312.137,16.851
63.96,309.61,16.691
63.99,306.943,16.507
64.03,304.1,16.359
64.06,301.328,16.061
64.09,297.923,15.912
64.12,294.695,15.763
64.16,291.466,15.534
64.19,288.097,15.385
64.22,284.868,15.213
64.25,281.429,15.087
64.29,278.235,14.984
64.32,275.287,14.801
64.35,272.234,14.617
64.38,269.145,14.48
64.42,266.092,14.365
64.45,262.933,14.216
64.48,259.669,14.056
64.51,256.335,13.918
64.55,253.072,13.689
64.58,249.808,13.449
64.61,246.439,13.243
64.64,243.105,13.071
64.68,239.841,12.933
64.71,236.612,12.784
64.74,233.453,12.578
64.77,230.119,12.406
64.81,226.891,12.212
64.84,223.592,12.005
64.87,220.293,11.799
64.9,216.924,11.582
64.94,213.484,11.352
64.97,209.94,11.135
65.0,206.36,10.906
65.03,202.675,10.677
65.07,198.99,10.436
65.1,195.235,10.15
65.13,191.304,9.909
65.16,187.338,9.703
65.2,183.232,9.531
65.23,179.196,9.29
65.26,175.02,9.061
65.29,170.808,8.855
65.33,166.527,8.66
65.36,162.35,8.443
65.39,158.069,8.191
65.42,153.752,7.985
65.46,149.435,7.767
65.49,145.084,7.538
65.52,140.591,7.309
65.55,136.205,7.068
65.59,131.712,6.782
65.62,127.115,6.507
65.65,122.482,6.278
65.68,117.92,6.071
65.72,113.287,5.9
65.75,108.76,5.693
65.78,104.233,5.43
65.82,99.67,5.189
65.85,95.108,4.926
65.88,90.546,4.662
65.91,86.018,4.445
65.95,81.456,4.239
65.98,76.894,4.032
66.01,72.261,3.849
66.04,67.664,3.654
66.08,63.206,3.448
66.11,58.679,3.196
66.14,54.082,2.956
66.17,49.519,2.761
66.21,44.922,2.509
66.24,40.43,2.28
66.27,35.762,2.028
66.3,31.2,1.81
66.34,26.637,1.524
66.37,22.25,1.272
66.4,17.618,1.031
66.43,13.126,0.871
66.47,8.598,0.642
66.5,4.176,0.481
66.53,-0.386,0.252
66.56,-4.773,0.149
66.6,-9.37,-0.08
66.63,-13.512,-0.218
66.66,-18.109,-0.699
66.69,-21.478,-0.756
66.73,-25.76,-1.764
66.76,-31.305,-1.947
66.79,-33.867,-2.36
66.82,-38.85,-3.162
66.86,-43.764,-3.093
66.89,-47.659,-3.482
66.92,-52.151,-3.62
66.95,-56.082,-3.746
66.99,-59.943,-3.975
67.02,-64.224,-4.09
67.05,-67.909,-4.25
67.08,-71.559,-4.502
67.12,-74.998,-4.766
67.15,-78.789,-5.063
67.18,-82.579,-5.258
67.21,-86.229,-5.522
67.25,-89.984,-5.774
67.28,-93.704,-5.957
67.31,-97.354,-6.186
67.34,-101.039,-6.404
67.38,-104.584,-6.587
67.41,-108.023,-6.873
67.44,-111.743,-7.068
67.47,-115.358,-7.24
67.51,-118.973,-7.446
67.54,-122.623,-7.641
67.57,-126.237,-7.87
67.6,-129.958,-8.111
67.64,-133.432,-8.351
67.67,-136.871,-8.637
67.7,-140.767,-8.924
67.73,-145.013,-9.164
67.77,-149.155,-9.359
67.8,-153.05,-9.623
67.83,-157.016,-9.84
67.86,-160.806,-10.081
67.9,-164.491,-10.241
67.93,-168.141,-10.47
67.96,-171.616,-10.619
67.99,-175.23,-10.883
68.03,-178.67,-10.986
68.06,-182.249,-11.295
68.09,-185.373,-11.295
68.12,-188.777,-11.799
68.16,-193.234,-11.891
68.19,-195.726,-11.983
68.22,-199.306,-12.303
68.26,-202.078,-12.303
68.29,-205.728,-12.727
68.32,-208.746,-12.613
68.35,-211.624,-13.059
68.39,-215.063,-13.151
68.42,-217.731,-13.414
68.45,-220.854,-13.632
68.48,-223.837,-13.77
68.52,-226.469,-13.918
68.55,-229.417,-14.125
68.58,-232.155,-14.274
68.61,-234.752,-14.434
68.65,-237.068,-14.629
68.68,-239.42,-14.835
68.71,-241.982,-14.972
68.74,-244.649,-15.133
68.78,-247.316,-15.316
68.81,-250.299,-15.476
68.84,-253.212,-15.66
68.87,-256.09,-15.889
68.91,-258.827,-16.038
68.94,-261.108,-16.164
68.97,-263.284,-16.278
69.0,-265.215,-16.381
69.04,-267.355,-16.496
69.07,-269.531,-16.633
69.1,-271.707,-16.782
69.13,-273.813,-16.954
69.17,-275.989,-17.126
69.2,-278.165,-17.332
69.23,-280.305,-17.493
69.26,-282.411,-17.596
69.3,-284.587,-17.687
69.33,-286.693,-17.79
69.36,-288.728,-17.871
69.39,-290.553,-17.985
69.43,-292.484,-18.123
69.46,-294.414,-18.26
69.49,-296.239,-18.363
69.52,-297.958,-18.478
69.56,-299.573,-18.569
69.59,-301.047,-18.684
69.62,-302.486,-18.821
69.65,-303.819,-18.913
69.69,-305.153,-19.016
69.72,-306.522,-19.085
69.75,-307.925,-19.131
69.78,-309.224,-19.177
69.82,-310.452,-19.257
69.85,-311.61,-19.394
69.88,-312.874,-19.497
69.91,-314.032,-19.6
69.95,-315.12,-19.635
69.98,-316.032,-19.658
70.01,-316.805,-19.726
70.04,-317.647,-19.749
70.08,-318.314,-19.784
70.11,-319.051,-19.852
70.14,-319.647,-19.944
70.17,-320.349,-20.013
70.21,-321.016,-20.059
70.24,-321.893,-20.07
70.27,-322.034,-19.967
70.3,-322.841,-20.196
70.34,-323.788,-20.082
70.37,-324.104,-20.173
70.4,-324.736,-20.208
70.43,-325.227,-20.242
70.47,-325.754,-20.311
70.5,-326.175,-20.345
70.53,-326.666,-20.391
70.56,-327.122,-20.391
70.6,-327.614,-20.437
70.63,-328.0,-20.437
70.66,-328.351,-20.46
70.7,-328.772,-20.46
70.73,-329.193,-20.483
70.76,-329.439,-20.391
70.79,-329.193,-20.368
70.83,-329.93,-20.46
70.86,-330.386,-20.322
70.89,-330.492,-20.425
70.92,-330.878,-20.437
70.96,-331.018,-20.471
70.99,-331.334,-20.448
71.02,-331.509,-20.414
71.05,-331.755,-20.357
71.09,-331.966,-20.242
71.12,-332.106,-20.196
71.15,-332.176,-20.208
71.18,-332.317,-20.219
71.22,-332.457,-20.219
71.25,-332.562,-20.15
71.28,-332.668,-20.07
71.31,-332.773,-19.944
71.35,-332.843,-19.864
71.38,-332.808,-19.807
71.41,-332.843,-19.83
71.44,-332.948,-19.761
71.48,-332.878,-19.704
71.51,-332.913,-19.692
71.54,-332.948,-19.623
71.57,-332.948,-19.555
71.61,-332.948,-19.406
71.64,-332.878,-19.303
71.67,-332.808,-19.234
71.7,-332.632,-19.211
71.74,-332.562,-19.165
71.77,-332.457,-19.039
71.8,-332.211,-18.902
71.83,-331.895,-18.833
71.87,-331.544,-18.695
71.9,-330.948,-18.604
71.93,-330.176,-18.375
71.96,-328.702,-18.203
72.0,-327.859,-18.1
72.03,-326.631,-17.802
72.06,-324.701,-17.596
72.09,-322.49,-17.458
72.13,-320.63,-17.309
72.16,-319.086,-17.115
72.19,-316.805,-16.989
72.22,-314.313,-16.931
72.26,-311.856,-16.771
72.29,-309.224,-16.599
72.32,-306.697,-16.473
72.35,-303.889,-16.267
72.39,-300.906,-16.072
72.42,-297.783,-15.912
72.45,-294.554,-15.728
72.48,-291.29,-15.568
72.52,-288.062,-15.396
72.55,-284.763,-15.19
72.58,-281.499,-14.984
72.61,-278.235,-14.846
72.65,-275.182,-14.709
72.68,-272.234,-14.56
72.71,-269.215,-14.411
72.74,-266.162,-14.285
72.78,-263.004,-14.159
72.81,-259.81,-13.953
72.84,-256.441,-13.747
72.87,-252.966,-13.563
72.91,-249.632,-13.392
72.94,-246.368,-13.208
72.97,-243.034,-13.059
73.0,-239.771,-12.899
73.04,-236.577,-12.716
73.07,-233.348,-12.498
73.1,-230.084,-12.303
73.14,-226.82,-12.109
73.17,-223.557,-11.902
73.2,-220.117,-11.719
73.23,-216.678,-11.524
73.27,-213.133,-11.352
73.3,-209.624,-11.135
73.33,-206.184,-10.894
73.36,-202.57,-10.642
73.4,-198.92,-10.425
73.43,-195.235,-10.161
73.46,-191.304,-9.955
73.49,-187.444,-9.749
73.53,-183.478,-9.485
73.56,-179.337,-9.279
73.59,-175.195,-9.073
73.62,-170.984,-8.832
73.66,-166.702,-8.626
73.69,-162.421,-8.397
73.72,-158.069,-8.191
73.75,-153.752,-7.962
73.79,-149.4,-7.744
73.82,-145.013,-7.538
73.85,-140.627,-7.309
73.88,-136.31,-7.022
73.92,-131.783,-6.77
73.95,-127.15,-6.553
73.98,-122.588,-6.346
74.01,-118.025,-6.117
74.05,-113.358,-5.911
74.08,-108.725,-5.693
74.11,-104.163,-5.476
74.14,-99.67,-5.212
74.18,-95.073,-4.972
74.21,-90.475,-4.72
74.24,-85.913,-4.536
74.27,-81.491,-4.261
74.31,-77.034,-4.009
74.34,-72.401,-3.792
74.37,-67.944,-3.586
74.4,-63.347,-3.345
74.44,-58.855,-3.15
74.47,-54.117,-2.898
74.5,-49.625,-2.761
74.53,-44.746,-2.451
74.57,-41.167,-2.451
74.6,-36.078,-1.684
74.63,-30.252,-1.844
74.66,-27.339,-1.684
74.7,-22.356,-1.146
74.73,-17.056,-1.18
74.76,-12.985,-1.031
74.79,-8.879,-0.676
74.83,-4.141,-0.458
74.86,0.105,-0.332
74.89,4.457,-0.069
74.92,9.055,0.08
74.96,13.371,0.275
74.99,17.618,0.607
75.02,21.899,0.997
75.05,25.97,1.455
75.09,30.077,2.016
75.12,34.253,2.509
75.15,38.675,2.91
75.18,43.167,3.185
75.22,47.519,3.356
75.25,51.801,3.54
75.28,55.942,3.712
75.31,59.802,3.929
75.35,63.663,4.193
75.38,67.628,4.387
75.41,71.278,4.594
75.44,74.928,4.8
75.48,78.613,5.018
75.51,82.474,5.212
75.54,86.264,5.43
75.58,89.949,5.67
75.61,93.634,5.923
75.64,97.319,6.152
75.67,100.969,6.404
75.71,104.654,6.575
75.74,108.269,6.793
75.77,111.848,6.999
75.8,115.498,7.263
75.84,119.078,7.469
75.87,122.763,7.755
75.9,126.448,7.916
75.93,130.203,8.259
75.97,133.994,8.305
76.0,136.801,8.603
76.03,141.75,9.05
76.06,145.119,8.912
76.1,148.909,9.6
76.13,153.682,9.6
76.16,157.121,9.852
76.19,161.087,10.127
76.23,165.018,10.23
76.26,168.492,10.402
76.29,172.142,10.631
76.32,175.616,10.814
76.36,179.091,11.055
76.39,182.53,11.249
76.42,185.97,11.49
76.45,189.584,11.662
76.49,192.989,11.788
76.52,196.252,11.994
76.55,199.586,12.189
76.58,202.78,12.338
76.62,205.869,12.624
76.65,209.203,12.83
76.68,212.221,13.025
76.71,215.379,13.208
76.75,218.327,13.357
76.78,221.275,13.563
76.81,224.329,13.735
76.84,227.136,13.918
76.88,230.014,14.113
76.91,232.751,14.297
76.94,235.313,14.457
76.97,237.805,14.617
77.01,240.157,14.778
77.04,242.508,14.972
77.07,245.105,15.236
77.1,248.053,15.454
77.14,251.106,15.602
77.17,253.809,15.774
77.2,256.441,15.958
77.23,259.038,16.095
77.27,261.389,16.164
77.3,263.495,16.301
77.33,265.636,16.462
77.36,267.776,16.611
77.4,269.987,16.782
77.43,272.128,16.954
77.46,274.374,17.115
77.49,276.55,17.218
77.53,278.726,17.332
77.56,280.762,17.458
77.59,282.727,17.619
77.62,284.833,17.802
77.66,286.938,17.962
77.69,288.799,18.111
77.72,290.904,18.191
77.75,292.729,18.214
77.79,294.484,18.34
77.82,296.204,18.466
77.85,297.993,18.604
77.88,299.503,18.73
77.92,301.222,18.913
77.95,302.556,18.925
77.98,304.205,19.142
78.02,305.083,18.879
78.05,306.1,19.303
78.08,308.627,19.28
78.11,309.189,19.28
78.15,311.119,19.566
78.18,312.172,19.371
78.21,313.225,19.658
78.24,314.523,19.532
78.28,315.366,19.623
78.31,316.208,19.623
78.34,316.875,19.749
78.37,317.682,19.784
78.41,318.243,19.887
78.44,319.016,19.921
78.47,319.682,19.967
78.5,320.419,20.001
78.54,321.051,20.082
78.57,321.683,20.127
78.6,322.455,20.15
78.63,322.981,20.162
78.67,323.578,20.253
78.7,324.21,20.276
78.73,324.771,20.299
78.76,325.298,20.299
78.8,325.824,20.345
78.83,326.28,20.391
78.86,326.736,20.46
78.89,327.228,20.471
78.93,327.579,20.54
78.96,328.07,20.528
78.99,328.456,20.517
79.02,328.912,20.46
79.06,329.474,20.448
79.09,329.474,20.311
79.12,329.474,20.402
79.15,330.386,20.379
79.19,330.457,20.311
79.22,330.913,20.368
79.25,331.053,20.265
79.28,331.334,20.334
79.32,331.474,20.265
79.35,331.65,20.391
79.38,332.001,20.322
79.41,332.036,20.368
79.45,332.352,20.299
79.48,332.422,20.23
79.51,332.668,20.127
79.54,332.703,20.047
79.58,332.843,20.001
79.61,332.843,20.036
79.64,333.018,19.944
79.67,332.983,19.875
79.71,333.054,19.91
79.74,333.159,19.749
79.77,333.124,19.692
79.8,333.194,19.6
79.84,333.159,19.589
79.87,333.194,19.566
79.9,333.124,19.463
79.93,333.054,19.474
79.97,333.089,19.371
80.0,332.948,19.326
80.03,332.913,19.28
80.06,332.773,19.131
80.1,332.562,19.096
80.13,332.281,19.016
80.16,332.071,18.89
80.19,331.615,18.741
80.23,331.053,18.65
80.26,330.492,18.489
80.29,329.439,18.203
80.32,327.473,17.985
80.36,326.315,17.997
80.39,324.982,17.71
80.42,322.876,17.55
80.46,320.981,17.424
80.49,319.086,17.252
80.52,317.085,17.046
80.55,314.664,16.897
80.59,312.207,16.714
80.62,309.54,16.622
80.65,306.943,16.485
80.68,304.065,16.29
80.72,300.941,16.141
80.75,297.853,15.946
80.78,294.659,15.751
80.81,291.396,15.58
80.85,288.097,15.442
80.88,284.798,15.328
80.91,281.569,15.179
80.94,278.27,15.053
80.98,275.252,14.915
81.01,272.339,14.72
81.04,269.426,14.503
81.07,266.267,14.331
81.11,263.179,14.159
81.14,259.845,14.01
81.17,256.511,13.838
81.2,253.142,13.655
81.24,249.808,13.495
81.27,246.579,13.266
81.3,243.28,13.036
81.33,240.016,12.853
81.37,236.752,12.681
81.4,233.418,12.532
81.43,230.225,12.361
81.46,226.926,12.177
81.5,223.592,11.948
81.53,220.258,11.719
81.56,216.818,11.501
81.59,213.274,11.341
81.63,209.799,11.112
81.66,206.184,10.883
81.69,202.534,10.677
81.72,198.885,10.459
81.76,195.094,10.23
81.79,191.374,9.978
81.82,187.479,9.737
81.85,183.408,9.554
81.89,179.372,9.348
81.92,175.336,9.107
81.95,171.124,8.867
81.98,166.878,8.626
82.02,162.596,8.374
82.05,158.244,8.145
82.08,153.928,7.893
82.11,149.506,7.652
82.15,145.119,7.423
82.18,140.591,7.217
82.21,136.064,7.011
82.24,131.572,6.77
82.28,126.974,6.541
82.31,122.412,6.301
82.34,117.955,6.083
82.37,113.393,5.854
82.41,108.795,5.625
82.44,104.233,5.396
82.47,99.67,5.178
82.5,95.073,4.949
82.54,90.475,4.731
82.57,85.948,4.513
82.6,81.421,4.296
82.63,76.859,4.044
82.67,72.261,3.838
82.7,67.769,3.631
82.73,63.347,3.379
82.76,58.784,3.127
82.8,54.257,2.887
82.83,49.695,2.612
82.86,44.992,2.406
82.9,40.395,2.257
82.93,35.832,2.005
82.96,31.2,1.787
82.99,26.602,1.569
83.03,22.145,1.329
83.06,17.618,1.134
83.09,13.126,0.859
83.12,8.739,0.676
83.16,4.211,0.435
83.19,-0.14,0.286
83.22,-4.773,0.069
83.25,-9.16,-0.023
83.29,-13.617,-0.344
83.32,-17.793,-0.573
83.35,-22.285,-1.123
83.38,-25.725,-1.26
83.42,-29.796,-2.303
83.45,-35.587,-2.52
83.48,-38.464,-2.715
83.51,-43.448,-3.391
83.55,-48.151,-3.276
83.58,-52.046,-3.654
83.61,-56.468,-3.792
83.64,-60.258,-3.895
83.68,-64.014,-4.09
83.71,-67.979,-4.284
83.74,-71.559,-4.422
83.77,-75.139,-4.697
83.81,-78.754,-4.914
83.84,-82.474,-5.189
83.87,-86.229,-5.418
83.9,-89.879,-5.659
83.94,-93.494,-5.9
83.97,-97.249,-6.094
84.0,-100.864,-6.289
84.03,-104.478,-6.575
84.07,-108.023,-6.839
84.1,-111.533,-7.16
84.13,-115.358,-7.354
84.16,-118.903,-7.549
84.2,-122.588,-7.79
84.23,-126.343,-7.996
84.26,-130.028,-8.214
84.29,-133.643,-8.408
84.33,-137.187,-8.603
84.36,-140.977,-8.89
84.39,-145.154,-9.142
84.42,-149.295,-9.359
84.46,-153.05,-9.611
84.49,-157.086,-9.84
84.52,-160.771,-9.989
84.55,-164.491,-10.23
84.59,-168.106,-10.447
84.62,-171.686,-10.688
84.65,-175.336,-10.86
84.68,-178.775,-11.1
84.72,-182.214,-11.249
84.75,-185.759,-11.513
84.78,-189.093,-11.57
84.81,-192.181,-11.925
84.85,-196.603,-12.212
84.88,-198.955,-12.028
84.91,-201.622,-12.624
84.94,-206.184,-12.739
84.98,-208.781,-12.613
85.01,-211.835,-13.059
85.04,-215.274,-13.128
85.07,-217.871,-13.334
85.11,-221.065,-13.586
85.14,-224.013,-13.735
85.17,-226.715,-13.918
85.2,-229.382,-14.136
85.24,-232.155,-14.308
85.27,-234.892,-14.423
85.3,-237.244,-14.571
85.34,-239.7,-14.732
85.37,-242.192,-14.915
85.4,-244.789,-15.075
85.43,-247.421,-15.305
85.47,-250.439,-15.568
85.5,-253.423,-15.717
85.53,-256.125,-15.958
85.56,-258.862,-16.118
85.6,-261.073,-16.221
85.63,-263.249,-16.37
85.66,-265.355,-16.45
85.69,-267.426,-16.553
85.73,-269.742,-16.679
85.76,-272.023,-16.771
85.79,-274.234,-16.931
85.82,-276.34,-17.092
85.86,-278.375,-17.264
85.89,-280.446,-17.424
85.92,-282.481,-17.561
85.95,-284.517,-17.733
85.99,-286.658,-17.848
86.02,-288.693,-17.939
86.05,-290.588,-18.065
86.08,-292.484,-18.226
86.12,-294.484,-18.329
86.15,-296.274,-18.421
86.18,-297.993,-18.535
86.21,-299.678,-18.615
86.25,-301.257,-18.661
86.28,-302.626,-18.741
86.31,-303.889,-18.833
86.34,-305.118,-18.913
86.38,-306.381,-19.039
86.41,-307.82,-19.131
86.44,-309.189,-19.199
86.47,-310.558,-19.257
86.51,-311.751,-19.337
86.54,-313.049,-19.429
86.57,-314.172,-19.555
86.6,-315.225,-19.635
86.64,-316.173,-19.715
86.67,-316.98,-19.83
86.7,-317.787,-19.898
86.73,-318.524,-19.91
86.77,-319.296,-19.898
86.8,-319.928,-19.898
86.83,-320.56,-19.944
86.86,-321.191,-19.978
86.9,-321.648,-20.116
86.93,-322.49,-20.104
86.96,-323.016,-20.127
86.99,-323.718,-20.116
87.03,-323.859,-20.059
87.06,-324.771,-20.219
87.09,-325.403,-20.093
87.12,-325.754,-20.23
87.16,-326.28,-20.253
87.19,-326.596,-20.357
87.22,-327.158,-20.379
87.25,-327.614,-20.425
87.29,-328.07,-20.414
87.32,-328.386,-20.437
87.35,-328.772,-20.425
87.38,-329.123,-20.448
87.42,-329.369,-20.425
87.45,-329.193,-20.425
87.48,-330.0,-20.448
87.51,-330.457,-20.219
87.55,-330.597,-20.265
87.58,-330.913,-20.242
87.61,-331.088,-20.265
87.64,-331.334,-20.288
87.68,-331.509,-20.288
87.71,-331.72,-20.253
87.74,-331.895,-20.242
87.78,-332.071,-20.23
87.81,-332.317,-20.15
87.84,-332.422,-20.07
87.87,-332.457,-20.07
87.91,-332.562,-20.104
87.94,-332.668,-20.013
87.97,-332.738,-19.967
88.0,-332.843,-19.887
88.04,-332.913,-19.784
88.07,-332.913,-19.704
88.1,-332.878,-19.681
88.13,-332.878,-19.704
88.17,-332.913,-19.681
88.2,-332.913,-19.623
88.23,-332.948,-19.532
88.26,-332.983,-19.394
88.3,-332.843,-19.326
88.33,-332.843,-19.211
88.36,-332.703,-19.142
88.39,-332.597,-19.073
88.43,-332.422,-18.97
88.46,-332.246,-18.89
88.49,-331.895,-18.799
88.52,-331.474,-18.707
88.56,-330.948,-18.581
88.59,-330.281,-18.432
88.62,-328.912,-18.203
88.65,-327.509,-18.123
88.69,-326.421,-17.894
88.72,-324.701,-17.653
88.75,-322.595,-17.527
88.78,-320.63,-17.321
88.82,-318.84,-17.183
88.85,-316.769,-16.989
88.88,-314.243,-16.863
88.91,-311.681,-16.748
88.95,-309.189,-16.565
88.98,-306.451,-16.439
89.01,-303.749,-16.244
89.04,-300.731,-16.015
89.08,-297.572,-15.854
89.11,-294.414,-15.683
89.14,-291.08,-15.511
89.17,-287.675,-15.385
89.21,-284.447,-15.259
89.24,-281.288,-15.087
89.27,-278.094,-14.938
89.3,-275.146,-14.755
89.34,-272.058,-14.617
89.37,-269.04,-14.514
89.4,-265.987,-14.354
89.43,-262.828,-14.216
89.47,-259.564,-14.045
89.5,-256.23,-13.838
89.53,-252.931,-13.621
89.56,-249.667,-13.38
89.6,-246.404,-13.197
89.63,-243.245,-12.979
89.66,-239.876,-12.842
89.69,-236.647,-12.693
89.73,-233.453,-12.475
89.76,-230.119,-12.292
89.79,-226.891,-12.086
89.82,-223.627,-11.845
89.86,-220.117,-11.65
89.89,-216.713,-11.467
89.92,-213.133,-11.284
89.95,-209.694,-11.043
89.99,-206.044,-10.837
90.02,-202.394,-10.631
90.05,-198.674,-10.39
90.08,-194.814,-10.161
90.12,-190.918,-9.978
90.15,-187.128,-9.783
90.18,-183.092,-9.565
90.22,-179.126,-9.359
90.25,-175.055,-9.107
90.28,-170.879,-8.89
90.31,-166.772,-8.649
90.35,-162.561,-8.363
90.38,-158.209,-8.111
90.41,-153.822,-7.904
90.44,-149.471,-7.664
90.48,-145.049,-7.435
90.51,-140.521,-7.217
90.54,-135.994,-6.988
90.57,-131.502,-6.724
90.61,-126.869,-6.495
90.64,-122.307,-6.266
90.67,-117.674,-6.037
90.7,-113.112,-5.854
90.74,-108.514,-5.659
90.77,-103.952,-5.464
90.8,-99.39,-5.258
90.83,-94.862,-5.052
90.87,-90.3,-4.823
90.9,-85.843,-4.605
90.93,-81.421,-4.33
90.96,-76.929,-4.101
91.0,-72.401,-3.826
91.03,-67.909,-3.597
91.06,-63.312,-3.334
91.09,-58.96,-3.104
91.13,-54.222,-2.83
91.16,-49.73,-2.681
91.19,-44.746,-2.36
91.22,-41.026,-2.474
91.26,-36.253,-1.718
91.29,-30.287,-1.799
91.32,-27.409,-1.695
91.35,-22.601,-1.1
91.39,-17.337,-1.088
91.42,-13.196,-0.974
91.45,-9.055,-0.687
91.48,-4.317,-0.493
91.52,-0.07,-0.355
91.55,4.352,-0.137
91.58,8.949,0.0
91.61,13.266,0.206
91.65,17.477,0.538
91.68,21.794,0.916
91.71,25.865,1.386
91.74,30.006,1.947
91.78,34.077,2.474
91.81,38.499,2.921
91.84,42.957,3.23
91.87,47.203,3.505
91.91,51.625,3.712
91.94,55.836,3.849
91.97,59.943,4.009
92.0,63.768,4.193
92.04,67.734,4.376
92.07,71.489,4.559
92.1,75.069,4.777
92.13,78.754,4.972
92.17,82.509,5.121
92.2,86.089,5.315
92.23,89.703,5.567
92.26,93.353,5.819
92.3,96.968,6.106
92.33,100.618,6.381
92.36,104.268,6.633
92.39,107.883,6.873
92.43,111.568,7.068
92.46,115.218,7.309
92.49,119.043,7.492
92.52,122.658,7.755
92.56,126.448,7.985
92.59,130.168,8.294
92.62,134.064,8.408
92.66,136.836,8.592
92.69,141.644,9.096
92.72,145.294,8.89
92.75,148.909,9.462
92.79,153.577,9.623
92.82,157.156,9.852
92.85,161.017,10.104
92.88,164.737,10.23
92.92,168.246,10.379
92.95,172.002,10.573
92.98,175.546,10.757
93.01,179.091,10.997
93.05,182.495,11.226
93.08,185.97,11.444
93.11,189.444,11.662
93.14,192.813,11.879
93.18,196.182,12.051
93.21,199.516,12.246
93.24,202.745,12.464
93.27,206.009,12.681
93.31,209.238,12.83
93.34,212.326,13.002
93.37,215.344,13.197
93.4,218.222,13.38
93.44,221.065,13.586
93.47,224.153,13.781
93.5,227.066,13.941
93.53,229.874,14.148
93.57,232.787,14.319
93.6,235.384,14.48
93.63,237.84,14.64
93.66,240.262,14.789
93.7,242.754,14.949
93.73,245.421,15.11
93.76,248.228,15.328
93.79,251.001,15.511
93.83,253.668,15.728
93.86,256.16,15.935
93.89,258.757,16.106
93.92,261.389,16.221
93.96,263.705,16.29
93.99,265.881,16.439
94.02,268.163,16.565
94.05,270.233,16.714
94.09,272.479,16.908
94.12,274.55,17.0
94.15,276.27,17.16
94.18,278.445,17.332
94.22,280.656,17.378
94.25,282.552,17.596
94.28,284.903,17.802
94.31,286.938,17.905
94.35,288.834,18.054
94.38,290.834,18.111
94.41,292.589,18.249
94.44,294.659,18.375
94.48,296.519,18.501
94.51,298.204,18.604
94.54,299.959,18.718
94.57,301.292,18.684
94.61,302.205,18.902
94.64,304.662,19.062
94.67,304.907,18.73
94.7,306.206,19.36
94.74,308.662,19.085
94.77,309.084,19.303
94.8,311.119,19.509
94.83,312.032,19.371
94.87,313.295,19.612
94.9,314.453,19.509
94.93,315.401,19.669
94.96,316.454,19.612
95.0,317.085,19.692
95.03,317.822,19.807
95.06,318.524,19.875
95.1,319.191,19.91
95.13,319.858,19.967
95.16,320.595,19.956
95.19,321.156,19.967
95.23,321.718,20.047
95.26,322.385,20.082
95.29,322.911,20.173
95.32,323.438,20.322
95.36,324.104,20.391
95.39,324.701,20.391
95.42,325.298,20.368
95.45,325.894,20.322
95.49,326.245,20.322
95.52,326.736,20.379
95.55,327.228,20.414
95.58,327.614,20.483
95.62,328.07,20.494
95.65,328.456,20.528
95.68,328.877,20.494
95.71,329.333,20.494
95.75,329.439,20.334
95.78,329.333,20.448
95.81,330.246,20.402
95.84,330.281,20.357
95.88,330.772,20.471
95.91,331.123,20.276
95.94,331.369,20.253
95.97,331.474,20.196
96.01,331.685,20.299
96.04,331.966,20.265
96.07,332.071,20.242
96.1,332.176,20.242
96.14,332.387,20.265
96.17,332.597,20.185
96.2,332.632,20.127
96.23,332.808,20.104
96.27,332.913,19.978
96.3,332.878,19.956
96.33,332.983,19.898
96.36,332.948,19.898
96.4,333.089,19.875
96.43,333.159,19.738
96.46,333.194,19.612
96.49,333.124,19.543
96.53,333.124,19.532
96.56,333.124,19.486
96.59,333.018,19.486
96.62,332.983,19.44
96.66,332.983,19.371
96.69,332.983,19.188
96.72,332.843,19.039
96.75,332.597,18.982
96.79,332.317,18.947
96.82,332.176,18.764
96.85,331.65,18.661
96.88,331.088,18.569
96.92,330.527,18.386
96.95,329.228,18.1
96.98,327.509,18.031
97.01,326.666,17.951
97.05,324.982,17.642
97.08,322.771,17.607
97.11,320.876,17.47
97.14,318.945,17.378
97.18,317.05,17.195
97.21,314.664,16.931
97.24,312.172,16.702
97.27,309.575,16.553
97.31,306.908,16.404
97.34,303.995,16.278
97.37,301.012,16.141
97.4,297.923,15.912
97.44,294.624,15.66
97.47,291.255,15.488
97.5,288.132,15.293
97.54,284.763,15.11
97.57,281.429,14.995
97.6,278.2,14.904
97.63,275.182,14.778
97.67,272.163,14.64
97.7,269.25,14.468
97.73,266.232,14.285
97.76,263.074,14.102
97.8,259.845,13.907
97.83,256.511,13.735
97.86,253.142,13.586
97.89,249.843,13.449
97.93,246.509,13.254
97.96,243.21,13.059
97.99,239.876,12.876
98.02,236.717,12.704
98.06,233.418,12.521
98.09,230.119,12.372
98.12,226.961,12.189
98.15,223.662,11.971
98.19,220.328,11.73
98.22,216.994,11.467
98.25,213.484,11.238
98.28,209.869,11.043
98.32,206.255,10.848
98.35,202.499,10.654
98.38,198.779,10.459
98.41,194.884,10.253
98.45,191.129,10.047
98.48,187.268,9.794
98.51,183.302,9.542
98.54,179.301,9.313
98.58,175.16,9.13
98.61,171.054,8.924
98.64,166.878,8.683
98.67,162.561,8.489
98.71,158.35,8.248
98.74,154.033,7.973
98.77,149.681,7.71
98.8,145.294,7.446
98.84,140.802,7.206
98.87,136.31,6.976
98.9,131.712,6.759
98.93,127.115,6.518
98.97,122.482,6.289
99.0,117.99,6.026
99.03,113.393,5.785
99.06,108.76,5.567
99.1,104.198,5.361
99.13,99.635,5.166
99.16,94.897,5.018
99.19,90.405,4.823
99.23,85.878,4.571
99.26,81.456,4.353
99.29,76.929,4.067
99.32,72.296,3.861
99.36,67.874,3.643
99.39,63.347,3.402
99.42,58.784,3.173
99.45,54.222,2.933
99.49,49.66,2.669
99.52,45.097,2.417
99.55,40.57,2.142
99.58,35.867,1.936
99.62,31.34,1.707
99.65,26.848,1.501
99.68,22.25,1.306
99.71,17.828,1.123
99.75,13.336,0.848
99.78,8.879,0.653
99.81,4.352,0.401
99.84,-0.14,0.298
99.88,-4.703,0.069
99.91,-9.125,0.023
99.94,-13.652,-0.389
99.98,-17.653,-0.412
100.01,-21.303,-1.123
100.04,-27.129,-1.638
100.07,-30.077,-1.741
100.11,-34.148,-2.715
100.14,-39.377,-2.841
100.17,-43.553,-3.139
100.2,-47.905,-3.391
100.24,-52.116,-3.597
100.27,-56.117,-3.735
100.3,-60.188,-4.009
100.33,-64.154,-4.101
100.37,-67.909,-4.33
100.4,-71.559,-4.525
100.43,-75.209,-4.743
100.46,-78.929,-4.972
100.5,-82.579,-5.224
100.53,-86.334,-5.476
100.56,-89.984,-5.728
100.59,-93.564,-5.945
100.63,-97.284,-6.175
100.66,-100.899,-6.369
100.69,-104.443,-6.564
100.72,-108.058,-6.805
100.76,-111.638,-7.045
100.79,-115.218,-7.263
100.82,-118.797,-7.515
100.85,-122.447,-7.744
100.89,-126.132,-7.985
100.92,-130.028,-8.214
100.95,-133.678,-8.374
100.98,-137.082,-8.615
101.02,-140.977,-8.935
101.05,-145.119,-9.153
101.08,-149.155,-9.416
101.11,-153.05,-9.657
101.15,-157.016,-9.886
101.18,-160.771,-10.081
101.21,-164.526,-10.321
101.24,-168.071,-10.482
101.28,-171.686,-10.699
101.31,-175.195,-10.768
101.34,-178.705,-11.043
101.37,-181.863,-11.055
101.41,-185.127,-11.513
101.44,-189.865,-11.662
101.47,-192.392,-11.639
101.5,-196.007,-12.28
101.54,-199.411,-12.097
101.57,-201.622,-12.475
101.6,-205.833,-12.761
101.63,-208.676,-12.681
101.67,-211.624,-13.151
101.7,-215.274,-13.197
101.73,-218.011,-13.403
101.76,-221.065,-13.644
101.8,-223.907,-13.758
101.83,-226.505,-14.01
101.86,-229.453,-14.193
101.89,-232.155,-14.354
101.93,-234.752,-14.56
101.96,-237.244,-14.675
101.99,-239.56,-14.823
102.02,-242.052,-14.984
102.06,-244.649,-15.156
102.09,-247.316,-15.385
102.12,-250.334,-15.591
102.15,-253.282,-15.717
102.19,-256.02,-15.889
102.22,-258.792,-15.98
102.25,-260.933,-16.129
102.28,-263.144,-16.278
102.32,-265.179,-16.37
102.35,-267.355,-16.542
102.38,-269.637,-16.714
102.42,-271.883,-16.84
102.45,-274.059,-17.0
102.48,-276.27,-17.172
102.51,-278.34,-17.298
102.55,-280.411,-17.424
102.58,-282.446,-17.573
102.61,-284.552,-17.733
102.64,-286.623,-17.871
102.68,-288.658,-17.997
102.71,-290.588,-18.123
102.74,-292.554,-18.249
102.77,-294.449,-18.34
102.81,-296.274,-18.421
102.84,-297.923,-18.524
102.87,-299.538,-18.604
102.9,-301.152,-18.673
102.94,-302.521,-18.741
102.97,-303.854,-18.799
103.0,-305.153,-18.879
103.03,-306.451,-18.993
103.07,-307.82,-19.108
103.1,-309.154,-19.211
103.13,-310.347,-19.326
103.16,-311.575,-19.417
103.2,-312.769,-19.474
103.23,-313.997,-19.543
103.26,-315.155,-19.578
103.29,-316.208,-19.623
103.33,-317.015,-19.681
103.36,-317.682,-19.795
103.39,-318.384,-19.841
103.42,-319.121,-19.898
103.46,-319.682,-19.944
103.49,-320.525,-20.001
103.52,-321.086,-19.898
103.55,-321.367,-20.024
103.59,-322.595,-20.104
103.62,-323.016,-20.013
103.65,-323.613,-20.162
103.68,-324.174,-20.104
103.72,-324.666,-20.208
103.75,-325.262,-20.185
103.78,-325.754,-20.242
103.81,-326.21,-20.23
103.85,-326.631,-20.311
103.88,-327.158,-20.334
103.91,-327.544,-20.368
103.94,-327.93,-20.391
103.98,-328.351,-20.425
104.01,-328.737,-20.437
104.04,-329.088,-20.483
104.07,-329.369,-20.402
104.11,-329.123,-20.437
104.14,-329.93,-20.517
104.17,-330.386,-20.379
104.2,-330.597,-20.448
104.24,-330.913,-20.402
104.27,-331.088,-20.391
104.3,-331.299,-20.357
104.33,-331.474,-20.345
104.37,-331.755,-20.276
104.4,-331.966,-20.242
104.43,-332.071,-20.23
104.46,-332.176,-20.219
104.5,-332.281,-20.219
104.53,-332.457,-20.173
104.56,-332.597,-20.116
104.59,-332.738,-20.059
104.63,-332.773,-19.944
104.66,-332.808,-19.91
104.69,-332.878,-19.841
104.72,-332.913,-19.784
104.76,-332.913,-19.726
104.79,-332.948,-19.715
104.82,-332.983,-19.623
104.86,-332.913,-19.6
104.89,-332.948,-19.543
104.92,-332.948,-19.44
104.95,-332.913,-19.36
104.99,-332.808,-19.234
105.02,-332.703,-19.188
105.05,-332.668,-19.096
105.08,-332.492,-18.97
105.12,-332.211,-18.902
105.15,-331.966,-18.844
105.18,-331.65,-18.684
105.21,-331.053,-18.569
105.25,-330.316,-18.386
105.28,-328.947,-18.157
105.31,-327.965,-18.054
105.34,-326.877,-17.79
105.38,-324.982,-17.584
105.41,-322.701,-17.412
105.44,-320.7,-17.309
105.47,-319.016,-17.229
105.51,-316.91,-16.989
105.54,-314.243,-16.897
105.57,-311.646,-16.794
105.6,-309.119,-16.588
105.64,-306.592,-16.427
105.67,-303.96,-16.233
105.7,-300.941,-16.049
105.73,-297.958,-15.854
105.77,-294.659,-15.648
105.8,-291.29,-15.488
105.83,-287.991,-15.339
105.86,-284.587,-15.179
105.9,-281.253,-15.053
105.93,-278.059,-14.938
105.96,-275.076,-14.812
105.99,-272.198,-14.64
106.03,-269.18,-14.48
106.06,-266.197,-14.319
106.09,-263.109,-14.148
106.12,-259.845,-13.987
106.16,-256.581,-13.792
106.19,-253.247,-13.598
106.22,-249.948,-13.392
106.25,-246.649,-13.174
106.29,-243.315,-12.979
106.32,-239.946,-12.842
106.35,-236.682,-12.693
106.38,-233.383,-12.521
106.42,-230.19,-12.326
106.45,-226.926,-12.086
106.48,-223.521,-11.914
106.51,-220.187,-11.708
106.55,-216.713,-11.513
106.58,-213.168,-11.318
106.61,-209.624,-11.112
106.64,-205.974,-10.883
106.68,-202.464,-10.631
106.71,-198.744,-10.39
106.74,-194.989,-10.195
106.77,-191.164,-9.978
106.81,-187.268,-9.772
106.84,-183.267,-9.554
106.87,-179.161,-9.359
106.9,-175.09,-9.164
106.94,-170.984,-8.912
106.97,-166.737,-8.66
107.0,-162.561,-8.408
107.03,-158.244,-8.191
107.07,-153.998,-7.962
107.1,-149.681,-7.687
107.13,-145.259,-7.446
107.16,-140.732,-7.263
107.2,-136.31,-7.034
107.23,-131.677,-6.805
107.26,-127.08,-6.587
107.3,-122.552,-6.312
107.33,-117.885,-6.094
107.36,-113.428,-5.831
107.39,-108.795,-5.556
107.43,-104.198,-5.35
107.46,-99.635,-5.109
107.49,-95.003,-4.88
107.52,-90.405,-4.639
107.56,-85.808,-4.433
107.59,-81.14,-4.273
107.62,-76.683,-4.09
107.65,-72.05,-3.883
107.69,-67.593,-3.723
107.72,-63.031,-3.494
107.75,-58.644,-3.23
107.78,-54.082,-2.967
107.82,-49.66,-2.704
107.85,-44.781,-2.44
107.88,-41.272,-2.44
107.91,-35.797,-1.684
107.95,-30.322,-1.97
107.98,-27.48,-1.673
108.01,-22.285,-1.191
108.04,-17.302,-1.123
108.08,-13.336,-0.916
108.11,-9.055,-0.596
108.14,-4.352,-0.435
108.17,-0.105,-0.309
108.21,4.387,-0.126
108.24,8.984,0.023
108.27,13.336,0.229
108.3,17.618,0.573
108.34,21.935,0.939
108.37,26.111,1.409
108.4,30.182,1.959
108.43,34.253,2.497
108.47,38.675,2.933
108.5,43.097,3.265
108.53,47.414,3.494
108.56,51.765,3.7
108.6,56.047,3.838
108.63,60.118,3.941
108.66,64.084,4.101
108.69,67.944,4.307
108.73,71.559,4.502
108.76,75.034,4.766
108.79,78.719,5.029
108.82,82.474,5.235
108.86,86.229,5.464
108.89,89.914,5.682
108.92,93.599,5.911
108.95,97.249,6.175
108.99,100.899,6.415
109.02,104.549,6.633
109.05,108.199,6.839
109.08,111.848,7.057
109.12,115.533,7.251
109.15,119.148,7.458
109.18,122.693,7.721
109.21,126.378,7.985
109.25,130.133,8.248
109.28,133.888,8.5
109.31,137.433,8.672
109.34,141.223,8.935
109.38,145.364,9.153
109.41,149.541,9.359
109.44,153.506,9.588
109.47,157.367,9.817
109.51,161.087,10.058
109.54,164.877,10.287
109.57,168.597,10.47
109.6,172.212,10.642
109.64,175.757,10.791
109.67,179.196,10.997
109.7,182.671,11.204
109.74,186.04,11.387
109.77,189.409,11.627
109.8,192.813,11.834
109.83,196.147,12.028
109.87,199.551,12.189
109.9,202.885,12.338
109.93,205.869,12.567
109.96,209.132,12.807
110.0,212.256,13.002
110.03,215.169,13.243
110.06,218.222,13.472
110.09,221.346,13.644
110.13,224.294,13.804
110.16,227.101,14.022
110.19,229.979,14.205
110.22,232.787,14.319
110.26,235.313,14.503
110.29,237.84,14.675
110.32,240.227,14.823
110.35,242.683,14.995
110.39,245.316,15.167
110.42,248.123,15.396
110.45,251.001,15.614
110.48,253.809,15.797
110.52,256.406,15.958
110.55,258.862,16.141
110.58,261.284,16.244
110.61,263.46,16.359
110.65,265.706,16.439
110.68,267.741,16.565
110.71,269.917,16.782
110.74,272.304,16.908
110.78,274.374,17.08
110.81,276.515,17.275
110.84,278.796,17.401
110.87,280.832,17.447
110.91,282.797,17.596
110.94,284.798,17.756
110.97,286.868,17.905
111.0,288.799,18.02
111.04,290.623,18.191
111.07,292.519,18.295
111.1,294.484,18.386
111.13,296.204,18.466
111.17,297.958,18.592
111.2,299.467,18.684
111.23,301.117,18.925
111.26,302.591,18.89
111.3,304.17,19.119
111.33,304.977,18.89
111.36,306.171,19.314
111.39,308.698,19.188
111.43,309.294,19.199
111.46,311.119,19.452
111.49,312.032,19.36
111.52,313.295,19.623
111.56,314.453,19.532
111.59,315.541,19.704
111.62,316.524,19.658
111.65,317.191,19.726
111.69,317.928,19.784
111.72,318.594,19.818
111.75,319.156,19.841
111.78,319.788,19.944
111.82,320.454,19.944
111.85,321.016,20.059
111.88,321.753,20.059
111.91,322.35,20.059
111.95,322.876,20.185
111.98,323.473,20.242
112.01,323.999,20.334
112.04,324.631,20.391
112.08,325.157,20.414
112.11,325.894,20.471
112.14,326.35,20.414
112.18,326.631,20.437
112.21,327.263,20.483
112.24,327.649,20.46
112.27,328.14,20.483
112.31,328.491,20.448
112.34,328.947,20.448
112.37,329.404,20.379
112.4,329.333,20.276
112.44,329.404,20.379
112.47,330.106,20.437
112.5,330.386,20.414
112.53,330.667,20.517
112.57,330.983,20.517
112.6,331.299,20.46
112.63,331.58,20.345
112.66,331.72,20.299
112.7,331.931,20.311
112.73,332.141,20.242
112.76,332.176,20.23
112.79,332.387,20.322
112.83,332.527,20.276
112.86,332.738,20.162
112.89,332.878,19.99
112.92,332.913,19.933
112.96,332.983,19.875
112.99,333.054,19.772
113.02,333.054,19.795
113.05,333.089,19.795
113.09,333.159,19.749
113.12,333.159,19.681
113.15,333.124,19.635
113.18,333.089,19.612
113.22,333.089,19.6
113.25,333.089,19.532
113.28,333.018,19.44
113.31,333.018,19.348
113.35,332.983,19.199
113.38,332.948,19.016
113.41,332.668,18.89
113.44,332.387,18.867
113.48,332.106,18.799
113.51,331.685,18.73
113.54,331.088,18.661
113.57,330.421,18.535
113.61,329.123,18.26
113.64,327.895,18.123
113.67,326.982,17.894
113.7,325.262,17.676
113.74,323.192,17.584
113.77,321.227,17.435
113.8,319.226,17.275
113.83,316.91,17.137
113.87,314.558,16.977
113.9,312.137,16.771
113.93,309.645,16.588
113.96,306.978,16.439
114.0,304.065,16.29
114.03,301.222,16.141
114.06,298.134,15.935
114.09,294.835,15.717
114.13,291.501,15.511
114.16,288.202,15.328
114.19,284.868,15.156
114.22,281.499,15.053
114.26,278.235,14.927
114.29,275.182,14.823
114.32,272.163,14.686
114.35,269.18,14.537
114.39,266.232,14.342
114.42,263.109,14.136
114.45,259.88,13.987
114.48,256.616,13.804
114.52,253.317,13.609
114.55,249.983,13.426
114.58,246.614,13.277
114.62,243.315,13.105
114.65,240.016,12.945
114.68,236.858,12.739
114.71,233.559,12.532
114.75,230.295,12.361
114.78,227.031,12.189
114.81,223.732,11.96
114.84,220.293,11.765
114.88,216.888,11.536
114.91,213.344,11.284
114.94,209.799,11.043
114.97,206.184,10.837
115.01,202.464,10.654
115.04,198.814,10.447
115.07,194.954,10.23
115.1,191.093,10.047
115.14,187.303,9.817
115.17,183.443,9.531
115.2,179.442,9.245
115.23,175.301,9.016
115.27,171.124,8.809
115.3,166.878,8.592
115.33,162.561,8.385
115.36,158.209,8.214
115.4,153.928,7.973
115.43,149.611,7.71
115.46,145.259,7.48
115.49,140.872,7.24
115.53,136.345,7.022
115.56,131.818,6.793
115.59,127.185,6.61
115.62,122.552,6.392
115.66,118.13,6.117
115.69,113.533,5.842
115.72,108.9,5.59
115.75,104.233,5.373
115.79,99.706,5.166
115.82,95.073,4.937
115.85,90.405,4.754
115.88,85.913,4.513
115.92,81.421,4.261
115.95,76.823,4.032
115.98,72.331,3.815
116.01,67.769,3.597
116.05,63.242,3.368
116.08,58.679,3.127
116.11,54.117,2.921
116.14,49.484,2.738
116.18,44.922,2.463
116.21,40.465,2.211
116.24,35.797,1.936
116.27,31.165,1.73
116.31,26.602,1.501
116.34,22.075,1.329
116.37,17.513,1.111
116.4,13.091,0.928
116.44,8.704,0.664
116.47,4.317,0.493
116.5,-0.105,0.241
116.53,-4.597,0.137
116.57,-9.055,-0.092
