Trigger_Date,2023/07/31
Trigger_Time,T 23:20:04.682 PDT
Samples_Per_Cycle,512
Microseconds_Per_Sample,32.560
Time (ms),Voltage (V),Current (A)
-16.67,-11.722,-0.218
-16.64,-16.179,-0.504
-16.61,-20.285,-0.894
-16.57,-24.742,-1.317
-16.54,-27.69,-1.695
-16.51,-33.2,-2.749
-16.48,-37.692,-2.577
-16.44,-40.921,-3.299
-16.41,-46.361,-3.551
-16.38,-50.327,-3.608
-16.35,-54.678,-3.872
-16.31,-58.749,-3.906
-16.28,-62.505,-4.078
-16.25,-66.505,-4.284
-16.21,-70.226,-4.433
-16.18,-73.7,-4.674
-16.15,-77.315,-4.892
-16.12,-80.789,-5.166
-16.08,-84.685,-5.407
-16.05,-88.335,-5.625
-16.02,-92.055,-5.877
-15.99,-95.775,-6.094
-15.95,-99.319,-6.312
-15.92,-102.899,-6.553
-15.89,-106.584,-6.782
-15.86,-110.094,-6.988
-15.82,-113.673,-7.24
-15.79,-117.323,-7.492
-15.76,-120.938,-7.698
-15.73,-124.518,-7.939
-15.69,-128.308,-8.168
-15.66,-132.028,-8.351
-15.63,-135.503,-8.557
-15.6,-139.082,-8.832
-15.56,-143.153,-9.119
-15.53,-147.189,-9.336
-15.5,-151.19,-9.577
-15.47,-154.945,-9.794
-15.43,-158.876,-10.047
-15.4,-162.596,-10.184
-15.37,-166.246,-10.402
-15.34,-169.791,-10.573
-15.3,-173.3,-10.837
-15.27,-176.81,-10.974
-15.24,-180.319,-11.238
-15.21,-183.618,-11.375
-15.17,-187.233,-11.753
-15.14,-190.427,-11.742
-15.11,-193.866,-12.235
-15.08,-197.726,-12.166
-15.04,-199.902,-12.406
-15.01,-204.114,-12.773
-14.98,-206.956,-12.613
-14.94,-210.08,-13.082
-14.91,-213.449,-13.151
-14.88,-216.397,-13.403
-14.85,-219.415,-13.563
-14.81,-222.258,-13.735
-14.78,-224.995,-13.896
-14.75,-227.873,-14.079
-14.72,-230.54,-14.182
-14.68,-233.102,-14.411
-14.65,-235.594,-14.549
-14.62,-237.981,-14.732
-14.59,-240.508,-14.904
-14.55,-243.105,-15.087
-14.52,-245.702,-15.305
-14.49,-248.544,-15.522
-14.46,-251.457,-15.694
-14.42,-254.23,-15.912
-14.39,-256.967,-16.072
-14.36,-259.319,-16.233
-14.33,-261.6,-16.336
-14.29,-263.67,-16.427
-14.26,-265.776,-16.553
-14.23,-267.917,-16.656
-14.2,-269.917,-16.794
-14.16,-271.918,-16.966
-14.13,-274.059,-17.115
-14.1,-276.059,-17.252
-14.07,-278.094,-17.344
-14.03,-280.06,-17.481
-14.0,-282.025,-17.619
-13.97,-284.096,-17.79
-13.94,-286.096,-17.951
-13.9,-288.026,-18.088
-13.87,-289.922,-18.203
-13.84,-291.782,-18.306
-13.81,-293.607,-18.421
-13.77,-295.502,-18.478
-13.74,-297.151,-18.604
-13.71,-298.836,-18.73
-13.68,-300.345,-18.776
-13.64,-301.714,-18.902
-13.61,-303.188,-18.936
-13.58,-304.381,-19.051
-13.54,-305.75,-19.131
-13.51,-307.013,-19.177
-13.48,-308.276,-19.222
-13.45,-309.364,-19.303
-13.41,-310.417,-19.371
-13.38,-311.54,-19.474
-13.35,-312.733,-19.566
-13.32,-313.751,-19.623
-13.28,-314.664,-19.692
-13.25,-315.506,-19.784
-13.22,-316.173,-19.83
-13.19,-316.84,-19.841
-13.15,-317.331,-19.898
-13.12,-317.963,-19.956
-13.09,-318.559,-20.001
-13.06,-319.121,-20.024
-13.02,-319.647,-20.082
-12.99,-320.244,-20.082
-12.96,-320.805,-20.093
-12.93,-321.402,-20.07
-12.89,-321.402,-20.047
-12.86,-322.104,-20.242
-12.83,-322.771,-20.162
-12.8,-323.016,-20.334
-12.76,-323.578,-20.334
-12.73,-323.894,-20.437
-12.7,-324.49,-20.448
-12.67,-324.911,-20.448
-12.63,-325.368,-20.437
-12.6,-325.648,-20.448
-12.57,-326.105,-20.471
-12.54,-326.456,-20.471
-12.5,-326.842,-20.46
-12.47,-327.193,-20.402
-12.44,-327.509,-20.345
-12.41,-327.789,-20.345
-12.37,-328.0,-20.334
-12.34,-328.316,-20.345
-12.31,-328.491,-20.345
-12.28,-328.702,-20.345
-12.24,-328.912,-20.322
-12.21,-329.053,-20.276
-12.18,-329.298,-20.265
-12.14,-329.439,-20.242
-12.11,-329.579,-20.23
-12.08,-329.684,-20.208
-12.05,-329.86,-20.162
-12.01,-330.035,-20.07
-11.98,-330.07,-19.99
-11.95,-330.141,-19.944
-11.92,-330.211,-19.875
-11.88,-330.281,-19.841
-11.85,-330.316,-19.749
-11.82,-330.281,-19.704
-11.79,-330.316,-19.692
-11.75,-330.351,-19.646
-11.72,-330.316,-19.623
-11.69,-330.316,-19.52
-11.66,-330.281,-19.463
-11.62,-330.246,-19.394
-11.59,-330.211,-19.28
-11.56,-330.106,-19.177
-11.53,-329.93,-19.085
-11.49,-329.755,-19.028
-11.46,-329.614,-18.879
-11.43,-329.333,-18.684
-11.4,-328.842,-18.569
-11.36,-328.351,-18.386
-11.33,-327.544,-18.283
-11.3,-326.701,-18.1
-11.27,-325.262,-17.894
-11.23,-323.683,-17.745
-11.2,-321.823,-17.493
-11.17,-319.612,-17.309
-11.14,-317.577,-17.16
-11.1,-315.576,-17.011
-11.07,-313.435,-16.897
-11.04,-310.909,-16.714
-11.01,-307.996,-16.576
-10.97,-305.328,-16.416
-10.94,-302.766,-16.233
-10.91,-300.029,-16.095
-10.87,-297.327,-15.969
-10.84,-294.449,-15.809
-10.81,-291.36,-15.66
-10.78,-288.237,-15.476
-10.74,-285.008,-15.247
-10.71,-281.604,-15.11
-10.68,-278.375,-14.904
-10.65,-275.111,-14.743
-10.61,-272.023,-14.64
-10.58,-269.075,-14.48
-10.55,-266.057,-14.377
-10.52,-263.214,-14.216
-10.48,-260.02,-14.022
-10.45,-256.862,-13.827
-10.42,-253.773,-13.575
-10.39,-250.404,-13.403
-10.35,-247.141,-13.266
-10.32,-243.877,-13.048
-10.29,-240.508,-12.865
-10.26,-237.173,-12.704
-10.22,-233.875,-12.498
-10.19,-230.54,-12.315
-10.16,-227.312,-12.143
-10.13,-223.943,-11.948
-10.09,-220.609,-11.765
-10.06,-217.204,-11.559
-10.03,-213.589,-11.364
-10.0,-210.01,-11.192
-9.96,-206.5,-10.974
-9.93,-202.956,-10.745
-9.9,-199.376,-10.505
-9.87,-195.656,-10.264
-9.83,-191.866,-10.047
-9.8,-187.97,-9.806
-9.77,-184.074,-9.577
-9.74,-179.968,-9.359
-9.7,-175.932,-9.142
-9.67,-171.721,-8.912
-9.64,-167.545,-8.672
-9.61,-163.333,-8.397
-9.57,-158.911,-8.214
-9.54,-154.7,-8.007
-9.51,-150.243,-7.801
-9.47,-145.996,-7.561
-9.44,-141.679,-7.297
-9.41,-137.117,-7.091
-9.38,-132.66,-6.873
-9.34,-128.168,-6.656
-9.31,-123.64,-6.415
-9.28,-119.078,-6.186
-9.25,-114.445,-5.968
-9.21,-109.988,-5.705
-9.18,-105.391,-5.453
-9.15,-100.864,-5.201
-9.12,-96.266,-4.949
-9.08,-91.669,-4.743
-9.05,-87.071,-4.513
-9.02,-82.509,-4.342
-8.99,-78.017,-4.124
-8.95,-73.524,-3.929
-8.92,-68.962,-3.689
-8.89,-64.505,-3.528
-8.86,-60.013,-3.23
-8.82,-55.626,-3.013
-8.79,-50.958,-2.681
-8.76,-46.571,-2.52
-8.73,-41.728,-2.199
-8.69,-37.903,-2.28
-8.66,-33.06,-1.627
-8.63,-27.269,-1.707
-8.6,-24.391,-1.569
-8.56,-19.548,-0.974
-8.53,-14.354,-0.962
-8.5,-10.458,-0.79
-8.47,-6.317,-0.481
-8.43,-1.649,-0.309
-8.4,2.632,-0.206
-8.37,7.124,0.011
-8.34,11.652,0.183
-8.3,15.968,0.458
-8.27,20.25,0.825
-8.24,24.496,1.249
-8.21,28.568,1.776
-8.17,32.709,2.348
-8.14,36.99,2.818
-8.11,41.553,3.173
-8.07,45.834,3.402
-8.04,50.186,3.62
-8.01,54.433,3.735
-7.98,58.434,3.883
-7.94,62.329,4.078
-7.91,66.33,4.284
-7.88,70.05,4.456
-7.85,73.489,4.72
-7.81,77.139,4.96
-7.78,80.824,5.178
-7.75,84.579,5.418
-7.72,88.3,5.613
-7.68,91.914,5.819
-7.65,95.494,6.083
-7.62,99.319,6.335
-7.59,102.934,6.541
-7.55,106.549,6.793
-7.52,110.164,6.999
-7.49,113.884,7.228
-7.46,117.499,7.435
-7.42,121.114,7.664
-7.39,124.693,7.939
-7.36,128.589,8.202
-7.33,132.133,8.466
-7.29,135.889,8.718
-7.26,138.766,8.809
-7.23,143.434,9.416
-7.2,147.891,9.233
-7.16,151.015,9.68
-7.13,155.753,9.932
-7.1,159.262,9.978
-7.07,162.947,10.321
-7.03,166.808,10.436
-7.0,170.247,10.596
-6.97,173.721,10.837
-6.94,177.371,10.952
-6.9,180.74,11.146
-6.87,184.18,11.375
-6.84,187.584,11.536
-6.8,191.023,11.765
-6.77,194.392,11.971
-6.74,197.621,12.212
-6.71,201.06,12.406
-6.67,204.289,12.555
-6.64,207.307,12.796
-6.61,210.606,13.002
-6.58,213.73,13.185
-6.54,216.678,13.403
-6.51,219.731,13.598
-6.48,222.644,13.781
-6.45,225.627,13.918
-6.41,228.435,14.079
-6.38,231.032,14.274
-6.35,233.664,14.445
-6.32,236.086,14.583
-6.28,238.437,14.778
-6.25,240.894,14.949
-6.22,243.561,15.11
-6.19,246.368,15.305
-6.15,249.211,15.488
-6.12,252.054,15.717
-6.09,254.686,15.889
-6.06,257.108,16.061
-6.02,259.459,16.233
-5.99,261.635,16.381
-5.96,263.811,16.507
-5.93,266.022,16.565
-5.89,267.882,16.748
-5.86,269.987,16.908
-5.83,272.234,17.011
-5.8,274.199,17.16
-5.76,276.234,17.321
-5.73,278.305,17.447
-5.7,280.446,17.527
-5.67,282.411,17.664
-5.63,284.377,17.848
-5.6,286.342,17.997
-5.57,288.342,18.134
-5.54,290.097,18.283
-5.5,292.027,18.398
-5.47,293.817,18.478
-5.44,295.677,18.581
-5.4,297.362,18.661
-5.37,299.117,18.799
-5.34,300.204,18.81
-5.31,301.714,18.993
-5.27,302.661,18.959
-5.24,304.697,19.314
-5.21,306.206,19.062
-5.18,307.259,19.36
-5.14,308.838,19.291
-5.11,309.61,19.44
-5.08,311.049,19.509
-5.05,311.961,19.589
-5.01,313.155,19.658
-4.98,313.997,19.704
-4.95,314.839,19.772
-4.92,315.576,19.784
-4.88,316.278,19.807
-4.85,316.805,19.852
-4.82,317.471,19.898
-4.79,317.928,19.967
-4.75,318.489,20.07
-4.72,319.121,20.093
-4.69,319.682,20.139
-4.66,320.244,20.162
-4.62,320.77,20.173
-4.59,321.191,20.242
-4.56,321.718,20.345
-4.53,322.139,20.311
-4.49,322.63,20.357
-4.46,323.122,20.368
-4.43,323.613,20.391
-4.4,324.139,20.357
-4.36,324.49,20.425
-4.33,325.157,20.345
-4.3,325.403,20.334
-4.27,325.929,20.46
-4.23,326.315,20.448
-4.2,326.561,20.505
-4.17,327.052,20.494
-4.14,327.298,20.414
-4.1,327.684,20.46
-4.07,327.859,20.437
-4.04,328.175,20.563
-4.0,328.456,20.528
-3.97,328.702,20.505
-3.94,328.947,20.437
-3.91,329.193,20.379
-3.87,329.404,20.265
-3.84,329.404,20.299
-3.81,329.684,20.311
-3.78,329.79,20.276
-3.74,329.965,20.242
-3.71,330.106,20.196
-3.68,330.176,20.162
-3.65,330.316,20.093
-3.61,330.457,19.91
-3.58,330.527,19.784
-3.55,330.562,19.715
-3.52,330.562,19.681
-3.48,330.562,19.635
-3.45,330.597,19.6
-3.42,330.632,19.52
-3.39,330.667,19.406
-3.35,330.632,19.303
-3.32,330.492,19.28
-3.29,330.457,19.257
-3.26,330.351,19.199
-3.22,330.246,19.188
-3.19,330.141,19.154
-3.16,329.965,19.039
-3.13,329.79,18.867
-3.09,329.404,18.741
-3.06,328.912,18.661
-3.03,328.316,18.547
-3.0,327.579,18.455
-2.96,326.526,18.283
-2.93,325.262,18.123
-2.9,323.859,17.951
-2.87,322.069,17.676
-2.83,319.998,17.435
-2.8,317.963,17.264
-2.77,315.787,17.115
-2.74,313.576,16.92
-2.7,310.944,16.737
-2.67,308.066,16.633
-2.64,305.539,16.462
-2.6,302.872,16.29
-2.57,300.24,16.164
-2.54,297.432,16.026
-2.51,294.484,15.9
-2.47,291.431,15.74
-2.44,288.307,15.557
-2.41,285.114,15.35
-2.38,281.815,15.144
-2.34,278.516,14.938
-2.31,275.287,14.72
-2.28,272.128,14.594
-2.25,269.075,14.48
-2.21,266.162,14.365
-2.18,263.179,14.193
-2.15,260.02,14.045
-2.12,256.932,13.838
-2.08,253.668,13.621
-2.05,250.404,13.46
-2.02,247.176,13.254
-1.99,243.842,13.094
-1.95,240.543,12.979
-1.92,237.314,12.807
-1.89,233.98,12.624
-1.86,230.716,12.441
-1.82,227.452,12.212
-1.79,224.083,11.994
-1.76,220.714,11.799
-1.73,217.31,11.604
-1.69,213.905,11.398
-1.66,210.396,11.146
-1.63,206.781,10.917
-1.6,203.166,10.699
-1.56,199.481,10.47
-1.53,195.726,10.253
-1.5,191.866,10.058
-1.47,188.005,9.852
-1.43,184.109,9.623
-1.4,180.074,9.382
-1.37,176.038,9.13
-1.33,171.931,8.855
-1.3,167.685,8.626
-1.27,163.474,8.374
-1.24,159.052,8.145
-1.2,154.7,8.007
-1.17,150.383,7.801
-1.14,146.031,7.561
-1.11,141.644,7.332
-1.07,137.222,7.08
-1.04,132.87,6.816
-1.01,128.343,6.553
-0.98,123.711,6.358
-0.94,119.183,6.14
-0.91,114.656,5.9
-0.88,109.988,5.682
-0.85,105.426,5.487
-0.81,100.899,5.224
-0.78,96.161,5.018
-0.75,91.704,4.788
-0.72,87.141,4.525
-0.68,82.649,4.342
-0.65,78.192,4.078
-0.62,73.595,3.906
-0.59,69.208,3.666
-0.55,64.856,3.402
-0.52,60.223,3.127
-0.49,55.766,2.933
-0.46,51.099,2.692
-0.42,46.536,2.497
-0.39,41.974,2.268
-0.36,37.341,2.096
-0.33,32.744,1.867
-0.29,28.462,1.627
-0.26,23.865,1.272
-0.23,19.443,1.146
-0.2,14.705,0.779
-0.16,10.844,0.905
-0.13,6.422,0.309
-0.1,0.351,0.321
-0.07,-2.457,0.389
-0.03,-6.949,-0.286
0.0,-12.389,-0.298
0.03,-16.284,-0.481
0.07,-20.18,-0.951
0.1,-24.602,-1.398
0.13,-28.638,-1.879
0.16,-32.779,-2.417
0.2,-37.236,-2.83
0.23,-41.798,-3.15
0.26,-46.15,-3.356
0.29,-50.467,-3.608
0.33,-54.713,-3.746
0.36,-58.714,-3.918
0.39,-62.645,-4.078
0.42,-66.47,-4.284
0.46,-70.12,-4.468
0.49,-73.735,-4.731
0.52,-77.35,-4.949
0.55,-80.93,-5.224
0.59,-84.79,-5.441
0.62,-88.475,-5.648
0.65,-92.195,-5.877
0.68,-95.88,-6.106
0.72,-99.425,-6.381
0.75,-103.11,-6.61
0.78,-106.725,-6.805
0.81,-110.304,-7.011
0.85,-113.884,-7.206
0.88,-117.464,-7.423
0.91,-121.078,-7.629
0.94,-124.728,-7.87
0.98,-128.343,-8.111
1.01,-132.098,-8.374
1.04,-135.468,-8.546
1.07,-139.153,-8.867
1.11,-143.224,-9.073
1.14,-147.33,-9.394
1.17,-151.19,-9.611
1.2,-155.367,-9.921
1.24,-158.56,-9.909
1.27,-162.491,-10.436
1.3,-167.053,-10.356
1.33,-169.44,-10.505
1.37,-173.476,-10.997
1.4,-177.196,-10.94
1.43,-180.284,-11.226
1.47,-183.899,-11.433
1.5,-187.303,-11.57
1.53,-190.637,-11.788
1.56,-194.006,-11.96
1.6,-196.638,-12.154
1.63,-200.745,-12.509
1.66,-203.833,-12.406
1.69,-206.711,-12.83
1.73,-210.396,-12.968
1.76,-213.203,-13.128
1.79,-216.432,-13.414
1.82,-219.556,-13.506
1.86,-222.223,-13.644
1.89,-225.066,-13.873
1.92,-227.873,-14.022
1.95,-230.505,-14.205
1.99,-233.102,-14.388
2.02,-235.559,-14.549
2.05,-238.016,-14.697
2.08,-240.402,-14.869
2.12,-242.964,-15.064
2.15,-245.702,-15.259
2.18,-248.544,-15.454
2.21,-251.352,-15.66
2.25,-254.23,-15.877
2.28,-256.967,-16.061
2.31,-259.248,-16.187
2.34,-261.565,-16.313
2.38,-263.67,-16.439
2.41,-265.811,-16.542
2.44,-267.917,-16.622
2.47,-269.847,-16.759
2.51,-271.988,-16.897
2.54,-273.988,-17.034
2.57,-275.954,-17.195
2.6,-277.989,-17.332
2.64,-279.955,-17.481
2.67,-281.99,-17.642
2.7,-284.096,-17.779
2.74,-286.096,-17.894
2.77,-288.026,-18.042
2.8,-289.957,-18.203
2.83,-291.887,-18.306
2.87,-293.782,-18.432
2.9,-295.607,-18.501
2.93,-297.362,-18.569
2.96,-298.941,-18.661
3.0,-300.45,-18.787
3.03,-301.819,-18.867
3.06,-303.047,-19.028
3.09,-304.451,-19.108
3.13,-305.855,-19.165
3.16,-307.083,-19.142
3.19,-308.311,-19.28
3.22,-309.435,-19.234
3.26,-310.066,-19.417
3.29,-312.102,-19.6
3.32,-312.909,-19.452
3.35,-313.821,-19.726
3.39,-314.699,-19.692
3.42,-315.436,-19.864
3.45,-316.278,-19.841
3.48,-316.91,-19.898
3.52,-317.612,-19.875
3.55,-318.068,-19.921
3.58,-318.665,-19.967
3.61,-319.226,-20.047
3.65,-319.788,-20.07
3.68,-320.384,-20.07
3.71,-320.876,-20.07
3.74,-321.367,-20.104
3.78,-321.788,-20.139
3.81,-322.104,-20.196
3.84,-322.63,-20.276
3.87,-323.157,-20.311
3.91,-323.613,-20.345
3.94,-323.999,-20.379
3.97,-324.49,-20.414
4.0,-324.947,-20.425
4.04,-325.333,-20.483
4.07,-325.789,-20.448
4.1,-326.14,-20.425
4.14,-326.526,-20.425
4.17,-326.877,-20.437
4.2,-327.158,-20.448
4.23,-327.438,-20.471
4.27,-327.859,-20.425
4.3,-328.035,-20.391
4.33,-328.316,-20.414
4.36,-328.526,-20.414
4.4,-328.772,-20.391
4.43,-328.947,-20.357
4.46,-329.123,-20.334
4.49,-329.369,-20.311
4.53,-329.474,-20.242
4.56,-329.544,-20.23
4.59,-329.755,-20.185
4.62,-329.895,-20.127
4.66,-330.0,-20.082
4.69,-330.106,-20.013
4.72,-330.211,-19.921
4.75,-330.246,-19.852
4.79,-330.246,-19.83
4.82,-330.246,-19.818
4.85,-330.316,-19.795
4.88,-330.316,-19.738
4.92,-330.386,-19.681
4.95,-330.386,-19.555
4.98,-330.351,-19.463
5.01,-330.351,-19.383
5.05,-330.316,-19.222
5.08,-330.141,-19.188
5.11,-330.07,-19.119
5.14,-329.93,-19.039
5.18,-329.755,-18.959
5.21,-329.509,-18.913
5.24,-329.263,-18.787
5.27,-328.842,-18.638
5.31,-328.281,-18.501
5.34,-327.579,-18.352
5.37,-326.526,-18.18
5.4,-325.157,-18.02
5.44,-323.648,-17.848
5.47,-321.683,-17.63
5.5,-319.542,-17.47
5.54,-317.506,-17.275
5.57,-315.471,-17.149
5.6,-313.4,-16.966
5.63,-310.803,-16.771
5.67,-308.066,-16.645
5.7,-305.469,-16.439
5.73,-302.802,-16.278
5.76,-300.134,-16.118
5.8,-297.397,-15.958
5.83,-294.414,-15.786
5.86,-291.29,-15.625
5.89,-288.097,-15.454
5.93,-284.903,-15.27
5.96,-281.569,-15.11
5.99,-278.235,-14.961
6.02,-275.111,-14.812
6.06,-271.988,-14.675
6.09,-269.11,-14.514
6.12,-266.057,-14.354
6.15,-263.074,-14.193
6.19,-259.985,-14.033
6.22,-256.757,-13.861
6.25,-253.528,-13.689
6.28,-250.299,-13.506
6.32,-247.035,-13.3
6.35,-243.736,-13.117
6.38,-240.437,-12.887
6.41,-237.173,-12.716
6.45,-233.91,-12.532
6.48,-230.646,-12.326
6.51,-227.312,-12.154
6.54,-223.978,-11.971
6.58,-220.538,-11.799
6.61,-217.169,-11.593
6.64,-213.765,-11.375
6.67,-210.22,-11.146
6.71,-206.606,-10.94
6.74,-202.991,-10.734
6.77,-199.306,-10.528
6.8,-195.586,-10.299
6.84,-191.83,-10.047
6.87,-187.9,-9.817
6.9,-183.969,-9.588
6.94,-179.863,-9.394
6.97,-175.862,-9.187
7.0,-171.756,-8.947
7.03,-167.509,-8.718
7.07,-163.368,-8.454
7.1,-159.016,-8.168
7.13,-154.7,-7.95
7.16,-150.278,-7.721
7.2,-145.926,-7.503
7.23,-141.539,-7.286
7.26,-137.047,-7.057
7.29,-132.555,-6.828
7.33,-128.133,-6.575
7.36,-123.57,-6.358
7.39,-119.043,-6.175
7.42,-114.41,-5.968
7.46,-109.883,-5.751
7.49,-105.356,-5.51
7.52,-100.758,-5.247
7.55,-96.196,-5.006
7.59,-91.704,-4.766
7.62,-87.001,-4.548
7.65,-82.544,-4.365
7.68,-78.087,-4.113
7.72,-73.524,-3.918
7.75,-69.102,-3.666
7.78,-64.54,-3.425
7.81,-60.083,-3.185
7.85,-55.696,-2.921
7.88,-51.064,-2.692
7.91,-46.396,-2.543
7.94,-41.939,-2.314
7.98,-37.271,-2.131
8.01,-32.744,-1.925
8.04,-28.427,-1.684
8.07,-23.865,-1.398
8.11,-19.408,-1.146
8.14,-14.88,-0.894
8.17,-10.493,-0.722
8.21,-5.896,-0.493
8.24,-1.614,-0.389
8.27,3.229,-0.126
8.3,6.738,-0.286
8.34,11.617,0.447
8.37,17.126,0.332
8.4,19.759,0.63
8.43,24.356,1.398
8.47,29.059,1.73
8.5,32.744,2.245
8.53,36.92,2.795
8.56,41.658,3.139
8.6,45.834,3.345
8.63,50.151,3.62
8.66,54.468,3.769
8.69,58.609,3.895
8.73,62.54,4.055
8.76,66.47,4.261
8.79,70.155,4.422
8.82,73.77,4.639
8.86,77.42,4.857
8.89,81.14,5.086
8.92,84.72,5.304
8.95,88.3,5.579
8.99,91.914,5.819
9.02,95.494,6.083
9.05,99.179,6.346
9.08,102.934,6.553
9.12,106.444,6.816
9.15,110.164,7.057
9.18,113.954,7.217
9.21,117.674,7.4
9.25,121.289,7.606
9.28,124.974,7.824
9.31,128.659,8.111
9.34,132.414,8.34
9.38,135.854,8.546
9.41,139.293,8.821
9.44,143.364,9.061
9.47,147.4,9.268
9.51,151.401,9.554
9.54,155.402,9.783
9.57,159.192,10.035
9.61,162.877,10.241
9.64,166.562,10.516
9.67,170.282,10.665
9.7,173.897,10.883
9.74,177.512,10.952
9.77,180.319,11.181
9.8,184.811,11.627
9.83,187.9,11.433
9.87,190.813,11.96
9.9,194.849,12.017
9.93,197.867,12.177
9.96,201.341,12.361
10.0,204.465,12.498
10.03,207.413,12.739
10.06,210.571,12.956
10.09,213.625,13.128
10.13,216.678,13.369
10.16,219.766,13.54
10.19,222.679,13.712
10.22,225.662,13.861
10.26,228.505,14.01
10.29,231.242,14.159
10.32,233.804,14.354
10.35,236.191,14.514
10.39,238.472,14.732
10.42,240.964,14.949
10.45,243.561,15.11
10.48,246.333,15.316
10.52,249.281,15.488
10.55,251.984,15.706
10.58,254.616,15.889
10.61,257.002,16.049
10.65,259.389,16.221
10.68,261.705,16.347
10.71,263.881,16.473
10.74,266.022,16.565
10.78,268.092,16.679
10.81,270.128,16.794
10.84,272.234,16.989
10.87,274.269,17.16
10.91,276.34,17.298
10.94,278.34,17.435
10.97,280.376,17.55
11.01,282.306,17.71
11.04,284.271,17.848
11.07,285.956,17.985
11.1,287.991,18.157
11.14,289.957,18.26
11.17,291.922,18.489
11.2,293.993,18.558
11.23,295.712,18.65
11.27,297.467,18.753
11.3,299.187,18.799
11.33,300.485,18.821
11.36,301.924,19.073
11.4,303.188,19.062
11.43,304.626,19.314
11.46,305.504,19.119
11.49,306.487,19.452
11.53,308.838,19.348
11.56,309.189,19.348
11.59,311.014,19.635
11.62,311.891,19.532
11.66,312.944,19.818
11.69,313.997,19.738
11.72,314.804,19.887
11.75,315.822,19.772
11.79,316.489,19.738
11.82,316.98,19.749
11.85,317.647,19.875
11.88,318.243,19.83
11.92,318.7,19.967
11.95,319.437,19.967
11.98,319.823,20.036
12.01,320.454,20.082
12.05,321.016,20.059
12.08,321.367,20.185
12.11,321.999,20.162
12.14,322.279,20.173
12.18,322.701,20.276
12.21,323.262,20.265
12.24,323.683,20.299
12.28,324.139,20.322
12.31,324.631,20.322
12.34,324.947,20.368
12.37,325.368,20.471
12.41,325.754,20.517
12.44,326.175,20.528
12.47,326.491,20.505
12.5,326.877,20.483
12.54,327.228,20.414
12.57,327.544,20.391
12.6,327.824,20.402
12.63,328.07,20.414
12.67,328.316,20.471
12.7,328.561,20.528
12.73,328.842,20.517
12.76,329.088,20.402
12.8,329.333,20.253
12.83,329.509,20.162
12.86,329.72,20.07
12.89,329.79,19.99
12.93,329.895,20.047
12.96,330.035,19.99
12.99,330.176,19.956
13.02,330.281,19.921
13.06,330.281,19.887
13.09,330.386,19.852
13.12,330.386,19.864
13.15,330.457,19.818
13.19,330.421,19.795
13.22,330.527,19.784
13.25,330.562,19.612
13.28,330.562,19.555
13.32,330.597,19.394
13.35,330.457,19.371
13.38,330.421,19.326
13.41,330.386,19.222
13.45,330.246,19.154
13.48,330.07,19.096
13.51,330.0,18.959
13.54,329.755,18.799
13.58,329.369,18.695
13.61,328.912,18.627
13.64,328.351,18.524
13.68,327.649,18.398
13.71,326.631,18.26
13.74,325.368,18.077
13.77,323.964,17.836
13.81,322.104,17.573
13.84,320.068,17.401
13.87,318.033,17.241
13.9,315.927,17.137
13.94,313.786,16.943
13.97,311.084,16.759
14.0,308.347,16.588
14.03,305.539,16.404
14.07,302.837,16.267
14.1,300.134,16.152
14.13,297.432,15.992
14.16,294.554,15.866
14.2,291.466,15.717
14.23,288.307,15.591
14.26,285.078,15.419
14.29,281.815,15.19
14.33,278.516,14.984
14.36,275.322,14.801
14.39,272.234,14.629
14.42,269.215,14.503
14.46,266.338,14.308
14.49,263.109,14.159
14.52,260.091,14.033
14.55,256.897,13.838
14.59,253.598,13.689
14.62,250.369,13.506
14.65,247.07,13.323
14.68,243.912,13.105
14.72,240.613,12.933
14.75,237.244,12.773
14.78,234.085,12.555
14.81,230.786,12.315
14.85,227.417,12.154
14.88,224.083,11.96
14.91,220.644,11.765
14.94,217.239,11.604
14.98,213.835,11.375
15.01,210.326,11.146
15.04,206.711,10.952
15.08,203.131,10.734
15.11,199.551,10.482
15.14,195.621,10.299
15.17,191.901,10.092
15.21,187.97,9.852
15.24,184.039,9.634
15.27,180.074,9.405
15.3,176.073,9.142
15.34,171.896,8.89
15.37,167.755,8.637
15.4,163.474,8.385
15.43,159.087,8.179
15.47,154.805,7.973
15.5,150.348,7.744
15.53,145.926,7.526
15.56,141.574,7.297
15.6,137.152,7.034
15.63,132.695,6.782
15.66,128.098,6.575
15.69,123.535,6.369
15.73,119.078,6.14
15.76,114.516,5.945
15.79,110.023,5.739
15.82,105.531,5.487
15.86,101.004,5.212
15.89,96.442,4.949
15.92,91.774,4.708
15.95,87.177,4.525
15.99,82.684,4.273
16.02,78.052,4.09
16.05,73.56,3.883
16.08,69.138,3.643
16.12,64.575,3.402
16.15,60.118,3.185
16.18,55.521,2.967
16.21,51.064,2.749
16.25,46.536,2.486
16.28,41.974,2.314
16.31,37.411,2.062
16.35,32.919,1.833
16.38,28.357,1.558
16.41,23.97,1.363
16.44,19.373,1.077
16.48,14.915,0.928
16.51,10.283,0.664
16.54,5.931,0.573
16.57,1.193,0.286
16.61,-2.386,0.389
16.64,-7.195,-0.263
16.67,-12.985,-0.16
16.7,-15.652,-0.298
16.74,-20.18,-1.042
16.77,-25.058,-1.306
16.8,-28.743,-1.764
16.83,-32.568,-2.417
16.87,-37.236,-2.887
16.9,-41.693,-3.139
16.93,-46.01,-3.414
16.96,-50.362,-3.597
17.0,-54.678,-3.769
17.03,-58.644,-3.929
17.06,-62.715,-4.113
17.09,-66.611,-4.284
17.13,-70.226,-4.479
17.16,-73.84,-4.674
17.19,-77.35,-4.926
17.22,-81.0,-5.166
17.26,-84.72,-5.384
17.29,-88.475,-5.59
17.32,-92.16,-5.774
17.35,-95.705,-6.037
17.39,-99.355,-6.278
17.42,-102.864,-6.507
17.45,-106.479,-6.782
17.48,-110.129,-6.976
17.52,-113.568,-7.206
17.55,-117.288,-7.377
17.58,-120.833,-7.618
17.61,-124.448,-7.939
17.65,-128.203,-8.168
17.68,-131.888,-8.385
17.71,-135.468,-8.592
17.75,-139.117,-8.775
17.78,-143.188,-9.038
17.81,-147.26,-9.268
17.84,-151.26,-9.52
17.88,-155.051,-9.726
17.91,-158.911,-10.012
17.94,-162.596,-10.173
17.97,-166.316,-10.459
18.01,-169.756,-10.47
18.04,-172.879,-10.837
18.07,-177.582,-11.055
18.1,-180.214,-10.963
18.14,-183.794,-11.57
18.17,-187.689,-11.536
18.2,-190.918,-11.845
18.23,-194.041,-11.925
18.27,-197.27,-12.315
18.3,-201.131,-12.418
18.33,-203.658,-12.521
18.36,-206.921,-12.956
18.4,-210.361,-13.059
18.43,-213.274,-13.243
18.46,-216.467,-13.403
18.49,-219.521,-13.563
18.53,-222.328,-13.689
18.56,-225.206,-13.861
18.59,-228.084,-14.01
18.62,-230.646,-14.193
18.66,-233.173,-14.4
18.69,-235.664,-14.56
18.72,-238.016,-14.709
18.75,-240.402,-14.915
18.79,-243.034,-15.087
18.82,-245.631,-15.213
18.85,-248.439,-15.419
18.88,-251.282,-15.637
18.92,-254.054,-15.877
18.95,-256.792,-16.095
18.98,-259.143,-16.221
19.01,-261.53,-16.313
19.05,-263.635,-16.393
19.08,-265.706,-16.519
19.11,-267.847,-16.622
19.15,-269.882,-16.759
19.18,-271.918,-16.943
19.21,-273.988,-17.08
19.24,-275.919,-17.241
19.28,-277.884,-17.378
19.31,-279.884,-17.527
19.34,-281.955,-17.653
19.37,-283.99,-17.779
19.41,-285.956,-17.894
19.44,-287.921,-18.054
19.47,-289.992,-18.146
19.5,-291.852,-18.272
19.54,-293.712,-18.386
19.57,-295.607,-18.489
19.6,-297.432,-18.535
19.63,-299.011,-18.615
19.67,-300.415,-18.73
19.7,-301.784,-18.821
19.73,-303.117,-18.913
19.76,-304.416,-18.993
19.8,-305.574,-19.073
19.83,-306.837,-19.131
19.86,-307.996,-19.211
19.89,-309.224,-19.291
19.93,-310.382,-19.348
19.96,-311.47,-19.452
19.99,-312.593,-19.566
20.02,-313.576,-19.635
20.06,-314.629,-19.738
20.09,-315.541,-19.704
20.12,-315.576,-19.749
20.15,-316.769,-19.921
20.19,-317.436,-19.795
20.22,-317.928,-19.967
20.25,-318.629,-19.91
20.28,-319.156,-20.001
20.32,-319.788,-19.978
20.35,-320.314,-20.013
20.38,-320.911,-20.001
20.41,-321.297,-20.07
20.45,-321.788,-20.139
20.48,-322.139,-20.196
20.51,-322.665,-20.276
20.55,-323.087,-20.334
20.58,-323.613,-20.368
20.61,-324.104,-20.357
20.64,-324.49,-20.368
20.68,-324.876,-20.448
20.71,-325.333,-20.471
20.74,-325.754,-20.448
20.77,-326.14,-20.437
20.81,-326.491,-20.483
20.84,-326.877,-20.448
20.87,-327.228,-20.425
20.9,-327.473,-20.425
20.94,-327.824,-20.391
20.97,-328.07,-20.345
21.0,-328.246,-20.357
21.03,-328.526,-20.391
21.07,-328.807,-20.334
21.1,-328.947,-20.276
21.13,-329.088,-20.276
21.16,-329.298,-20.311
21.2,-329.439,-20.311
21.23,-329.579,-20.276
21.26,-329.684,-20.253
21.29,-329.86,-20.185
21.33,-330.0,-20.024
21.36,-330.141,-19.944
21.39,-330.176,-19.887
21.42,-330.211,-19.864
21.46,-330.211,-19.841
21.49,-330.281,-19.83
21.52,-330.351,-19.749
21.55,-330.316,-19.715
21.59,-330.351,-19.681
21.62,-330.386,-19.578
21.65,-330.386,-19.463
21.68,-330.386,-19.337
21.72,-330.316,-19.234
21.75,-330.106,-19.199
21.78,-330.106,-19.177
21.82,-329.965,-19.085
21.85,-329.72,-19.028
21.88,-329.614,-18.844
21.91,-329.333,-18.661
21.95,-328.912,-18.547
21.98,-328.281,-18.432
22.01,-327.649,-18.295
22.04,-326.772,-18.088
22.08,-325.298,-17.894
22.11,-323.683,-17.79
22.14,-321.823,-17.527
22.17,-319.647,-17.355
22.21,-317.752,-17.16
22.24,-315.646,-17.011
22.27,-313.506,-16.908
22.3,-310.979,-16.737
22.34,-308.101,-16.599
22.37,-305.399,-16.427
22.4,-302.731,-16.244
22.43,-300.099,-16.095
22.47,-297.397,-15.923
22.5,-294.519,-15.74
22.53,-291.36,-15.602
22.56,-288.237,-15.442
22.6,-284.973,-15.247
22.63,-281.674,-15.075
22.66,-278.375,-14.881
22.69,-275.146,-14.72
22.73,-272.023,-14.583
22.76,-269.005,-14.48
22.79,-266.127,-14.365
22.82,-263.214,-14.193
22.86,-260.091,-14.033
22.89,-257.072,-13.815
22.92,-253.773,-13.586
22.95,-250.439,-13.403
22.99,-247.141,-13.243
23.02,-243.806,-13.059
23.05,-240.437,-12.933
23.08,-237.173,-12.75
23.12,-233.839,-12.555
23.15,-230.47,-12.383
23.18,-227.277,-12.2
23.22,-223.907,-12.017
23.25,-220.714,-11.776
23.28,-217.239,-11.524
23.31,-213.765,-11.364
23.35,-210.326,-11.158
23.38,-206.816,-10.917
23.41,-203.236,-10.699
23.44,-199.516,-10.459
23.48,-195.761,-10.23
23.51,-191.866,-10.035
23.54,-187.935,-9.84
23.57,-184.039,-9.6
23.61,-180.038,-9.359
23.64,-175.897,-9.13
23.67,-171.826,-8.89
23.7,-167.65,-8.637
23.74,-163.333,-8.431
23.77,-158.981,-8.248
23.8,-154.735,-8.019
23.83,-150.313,-7.801
23.87,-145.996,-7.549
23.9,-141.574,-7.309
23.93,-137.152,-7.045
23.96,-132.695,-6.77
24.0,-128.098,-6.564
24.03,-123.605,-6.358
24.06,-118.938,-6.152
24.09,-114.41,-5.945
24.13,-109.848,-5.716
24.16,-105.286,-5.499
24.19,-100.758,-5.189
24.22,-96.196,-4.972
24.26,-91.599,-4.777
24.29,-87.106,-4.559
24.32,-82.509,-4.33
24.35,-77.946,-4.181
24.39,-73.524,-3.895
24.42,-69.032,-3.666
24.45,-64.47,-3.391
24.48,-59.978,-3.219
24.52,-55.45,-2.967
24.55,-50.958,-2.807
24.58,-46.22,-2.486
24.62,-41.904,-2.509
24.65,-38.148,-2.039
24.68,-31.902,-1.684
24.71,-28.357,-1.925
24.75,-24.496,-1.249
24.78,-19.022,-1.111
24.81,-14.6,-0.997
24.84,-10.669,-0.756
24.88,-6.001,-0.47
24.91,-1.579,-0.401
24.94,2.737,-0.195
24.97,7.335,-0.046
25.01,11.757,0.137
25.04,16.039,0.412
25.07,20.32,0.802
25.1,24.567,1.214
25.14,28.638,1.764
25.17,32.674,2.314
25.2,37.061,2.795
25.23,41.518,3.127
25.27,45.799,3.402
25.3,50.221,3.608
25.33,54.538,3.735
25.36,58.504,3.883
25.4,62.399,4.113
25.43,66.435,4.319
25.46,70.155,4.468
25.49,73.665,4.685
25.53,77.35,4.903
25.56,81.035,5.144
25.59,84.825,5.373
25.62,88.545,5.59
25.66,92.055,5.819
25.69,95.81,6.071
25.72,99.425,6.278
25.75,103.04,6.541
25.79,106.689,6.747
25.82,110.339,6.965
25.85,113.919,7.16
25.89,117.534,7.435
25.92,121.078,7.664
25.95,124.869,7.95
25.98,128.448,8.088
26.02,132.344,8.5
26.05,135.643,8.42
26.08,139.153,8.947
26.11,144.171,9.027
26.15,147.049,9.187
26.18,151.541,9.783
26.21,155.647,9.737
26.24,159.016,10.138
26.28,163.087,10.321
26.31,166.737,10.447
26.34,170.282,10.631
26.37,173.932,10.825
26.41,177.441,10.94
26.44,180.846,11.204
26.47,184.355,11.364
26.5,187.759,11.604
26.54,191.269,11.788
26.57,194.673,11.948
26.6,197.832,12.177
26.63,201.166,12.406
26.67,204.324,12.601
26.7,207.518,12.83
26.73,210.677,13.025
26.76,213.765,13.22
26.8,216.853,13.38
26.83,219.907,13.552
26.86,222.82,13.758
26.89,225.697,13.918
26.93,228.575,14.056
26.96,231.242,14.262
26.99,233.839,14.4
27.02,236.261,14.583
27.06,238.647,14.778
27.09,241.28,14.869
27.12,243.736,15.007
27.15,246.368,15.236
27.19,249.246,15.476
27.22,252.124,15.671
27.25,254.651,15.854
27.29,257.037,16.084
27.32,259.494,16.221
27.35,261.67,16.324
27.38,263.951,16.427
27.42,266.022,16.519
27.45,267.987,16.725
27.48,270.093,16.908
27.51,272.269,17.057
27.55,274.409,17.206
27.58,276.445,17.309
27.61,278.481,17.412
27.64,280.481,17.55
27.68,282.516,17.687
27.71,284.482,17.825
27.74,286.412,17.939
27.77,288.342,18.042
27.81,290.237,18.203
27.84,292.203,18.249
27.87,293.887,18.352
27.9,295.607,18.501
27.94,297.221,18.661
27.97,298.906,18.81
28.0,300.485,18.902
28.03,301.959,19.016
28.07,303.293,19.073
28.1,304.767,19.085
28.13,304.942,19.073
28.16,307.118,19.486
28.2,308.487,19.188
28.23,309.435,19.566
28.26,311.049,19.486
28.29,311.786,19.635
28.33,313.155,19.669
28.36,313.997,19.669
28.39,314.98,19.692
28.42,315.646,19.738
28.46,316.313,19.852
28.49,316.945,19.875
28.52,317.401,19.99
28.55,317.892,20.093
28.59,318.559,20.116
28.62,319.191,20.036
28.65,319.682,20.001
28.69,320.174,20.036
28.72,320.7,20.116
28.75,321.191,20.196
28.78,321.577,20.276
28.82,322.034,20.368
28.85,322.63,20.391
28.88,323.367,20.379
28.91,323.613,20.334
28.95,324.104,20.437
28.98,324.666,20.357
29.01,324.947,20.46
29.04,325.578,20.414
29.08,325.754,20.437
29.11,326.421,20.46
29.14,326.666,20.322
29.17,327.017,20.425
29.21,327.298,20.391
29.24,327.579,20.46
29.27,327.93,20.437
29.3,328.175,20.483
29.34,328.596,20.414
29.37,328.807,20.23
29.4,329.018,20.219
29.43,329.263,20.15
29.47,329.333,20.173
29.5,329.509,20.23
29.53,329.684,20.219
29.56,329.79,20.253
29.6,330.035,20.208
29.63,330.106,20.196
29.66,330.246,20.127
29.69,330.386,19.967
29.73,330.457,19.91
29.76,330.527,19.818
29.79,330.527,19.772
29.82,330.562,19.738
29.86,330.632,19.669
29.89,330.702,19.589
29.92,330.737,19.463
29.95,330.562,19.452
29.99,330.597,19.429
30.02,330.527,19.348
30.05,330.421,19.348
30.09,330.386,19.291
30.12,330.386,19.177
30.15,330.246,19.016
30.18,330.0,18.89
30.22,329.755,18.776
30.25,329.404,18.695
30.28,329.123,18.535
30.31,328.386,18.421
30.35,327.649,18.34
30.38,326.561,18.111
30.41,325.157,17.974
30.44,323.824,17.779
30.48,321.928,17.538
30.51,319.753,17.412
30.54,317.682,17.275
30.57,315.611,17.149
30.61,313.435,17.011
30.64,310.873,16.874
30.67,308.241,16.668
30.7,305.539,16.485
30.74,302.942,16.347
30.77,300.275,16.233
30.8,297.678,16.038
30.83,294.659,15.843
30.87,291.396,15.706
30.9,288.307,15.522
30.93,285.078,15.259
30.96,281.674,15.064
31.0,278.235,14.949
31.03,275.041,14.846
31.06,271.953,14.709
31.09,268.935,14.617
31.13,266.127,14.457
31.16,263.074,14.274
31.19,260.056,14.09
31.22,257.002,13.85
31.26,253.703,13.655
31.29,250.439,13.518
31.32,247.141,13.346
31.36,243.842,13.162
31.39,240.543,12.991
31.42,237.279,12.773
31.45,233.945,12.567
31.49,230.716,12.361
31.52,227.417,12.154
31.55,224.048,11.96
31.58,220.749,11.719
31.62,217.169,11.57
31.65,213.765,11.398
31.68,210.326,11.123
31.71,206.781,10.917
31.75,203.307,10.642
31.78,199.446,10.447
31.81,195.691,10.31
31.84,191.936,10.104
31.88,188.005,9.909
31.91,184.145,9.657
31.94,180.109,9.405
31.97,176.038,9.142
32.01,171.931,8.867
32.04,167.615,8.637
32.07,163.474,8.385
32.1,159.052,8.145
32.14,154.735,7.973
32.17,150.348,7.767
32.2,146.031,7.538
32.23,141.679,7.263
32.27,137.152,6.999
32.3,132.695,6.77
32.33,128.168,6.541
32.36,123.64,6.312
32.4,119.043,6.129
32.43,114.375,5.934
32.46,109.953,5.705
32.49,105.356,5.453
32.53,100.829,5.224
32.56,96.266,5.029
32.59,91.739,4.788
32.62,87.106,4.594
32.66,82.684,4.387
32.69,78.262,4.124
32.72,73.735,3.872
32.76,69.348,3.574
32.79,64.751,3.311
32.82,60.223,3.082
32.85,55.591,2.875
32.89,50.958,2.715
32.92,46.326,2.509
32.95,41.869,2.303
32.98,37.201,2.051
33.02,32.674,1.833
33.05,28.287,1.569
33.08,23.83,1.375
33.11,19.337,1.168
33.15,14.88,0.985
33.18,10.423,0.745
33.21,6.071,0.573
33.24,1.579,0.309
33.28,-2.737,0.103
33.31,-7.37,-0.126
33.34,-11.722,-0.241
33.37,-16.249,-0.642
33.41,-20.425,-0.894
33.44,-24.847,-1.478
33.47,-28.181,-1.695
33.5,-32.603,-2.749
33.54,-38.429,-2.864
33.57,-41.237,-3.059
33.6,-46.255,-3.712
33.63,-50.958,-3.528
33.67,-54.854,-3.769
33.7,-58.995,-3.895
33.73,-62.75,-4.032
33.76,-66.435,-4.273
33.8,-70.261,-4.479
33.83,-73.805,-4.685
33.86,-77.385,-4.926
33.89,-81.0,-5.144
33.93,-84.825,-5.384
33.96,-88.51,-5.613
33.99,-92.23,-5.854
34.02,-95.985,-6.094
34.06,-99.6,-6.289
34.09,-103.145,-6.507
34.12,-106.725,-6.782
34.16,-110.304,-6.988
34.19,-113.779,-7.24
34.22,-117.499,-7.435
34.25,-121.078,-7.629
34.29,-124.623,-7.904
34.32,-128.378,-8.202
34.35,-132.028,-8.397
34.38,-135.503,-8.592
34.42,-139.153,-8.844
34.45,-143.364,-9.038
34.48,-147.47,-9.268
34.51,-151.436,-9.508
34.55,-155.261,-9.772
34.58,-159.016,-10.001
34.61,-162.737,-10.173
34.64,-166.281,-10.379
34.68,-169.896,-10.585
34.71,-173.476,-10.791
34.74,-176.985,-10.974
34.77,-180.389,-11.226
34.81,-183.864,-11.444
34.84,-187.303,-11.673
34.87,-190.813,-11.822
34.9,-193.585,-11.96
34.94,-197.762,-12.441
34.97,-201.096,-12.235
35.0,-203.131,-12.555
35.03,-207.413,-12.979
35.07,-210.536,-12.865
35.1,-213.063,-13.254
35.13,-216.608,-13.483
35.16,-219.38,-13.563
35.2,-222.398,-13.815
35.23,-225.487,-13.884
35.26,-228.119,-14.067
35.29,-230.681,-14.216
35.33,-233.173,-14.434
35.36,-235.699,-14.571
35.39,-237.981,-14.743
35.43,-240.332,-14.949
35.46,-243.14,-15.133
35.49,-245.737,-15.282
35.52,-248.509,-15.522
35.56,-251.422,-15.728
35.59,-254.23,-15.935
35.62,-257.037,-16.095
35.65,-259.424,-16.198
35.69,-261.635,-16.336
35.72,-263.846,-16.381
35.75,-265.811,-16.473
35.78,-267.812,-16.622
35.82,-269.847,-16.759
35.85,-271.777,-16.931
35.88,-273.988,-17.115
35.91,-276.059,-17.264
35.95,-278.024,-17.39
35.98,-280.025,-17.55
36.01,-282.13,-17.687
36.04,-284.166,-17.768
36.08,-286.096,-17.882
36.11,-288.097,-18.042
36.14,-290.027,-18.157
36.17,-291.922,-18.306
36.21,-293.712,-18.443
36.24,-295.607,-18.512
36.27,-297.292,-18.604
36.3,-298.976,-18.695
36.34,-300.485,-18.776
36.37,-301.854,-18.867
36.4,-303.152,-18.993
36.43,-304.486,-19.085
36.47,-305.75,-19.188
36.5,-307.013,-19.268
36.53,-308.241,-19.303
36.56,-309.54,-19.337
36.6,-310.593,-19.417
36.63,-311.751,-19.486
36.66,-312.769,-19.555
36.69,-313.786,-19.623
36.73,-314.629,-19.646
36.76,-315.506,-19.704
36.79,-316.278,-19.738
36.83,-316.875,-19.807
36.86,-317.506,-19.864
36.89,-318.068,-19.933
36.92,-318.594,-19.967
36.96,-319.191,-20.013
36.99,-319.717,-20.047
37.02,-320.244,-20.059
37.05,-320.77,-20.104
37.09,-321.367,-20.082
37.12,-321.753,-20.127
37.15,-322.174,-20.173
37.18,-322.244,-20.185
37.22,-323.016,-20.391
37.25,-323.648,-20.311
37.28,-323.894,-20.448
37.31,-324.525,-20.437
37.35,-324.806,-20.46
37.38,-325.368,-20.494
37.41,-325.719,-20.437
37.44,-326.105,-20.483
37.48,-326.526,-20.46
37.51,-326.877,-20.46
37.54,-327.228,-20.391
37.57,-327.509,-20.334
37.61,-327.754,-20.334
37.64,-328.0,-20.368
37.67,-328.316,-20.391
37.7,-328.526,-20.379
37.74,-328.737,-20.391
37.77,-328.983,-20.357
37.8,-329.193,-20.23
37.83,-329.333,-20.196
37.87,-329.474,-20.196
37.9,-329.614,-20.173
37.93,-329.684,-20.162
37.96,-329.86,-20.104
38.0,-330.0,-20.059
38.03,-330.141,-19.978
38.06,-330.141,-19.933
38.09,-330.176,-19.921
38.13,-330.211,-19.91
38.16,-330.316,-19.841
38.19,-330.351,-19.784
38.23,-330.386,-19.704
38.26,-330.386,-19.635
38.29,-330.421,-19.543
38.32,-330.386,-19.429
38.36,-330.316,-19.383
38.39,-330.281,-19.337
38.42,-330.211,-19.268
38.45,-330.141,-19.188
38.49,-329.93,-19.073
38.52,-329.79,-18.936
38.55,-329.579,-18.833
38.58,-329.298,-18.73
38.62,-328.912,-18.581
38.65,-328.246,-18.443
38.68,-327.579,-18.329
38.71,-326.561,-18.146
38.75,-325.227,-17.951
38.78,-323.718,-17.733
38.81,-321.683,-17.516
38.84,-319.577,-17.332
38.88,-317.471,-17.16
38.91,-315.401,-17.046
38.94,-313.365,-16.897
38.97,-310.838,-16.737
39.01,-308.066,-16.553
39.04,-305.363,-16.393
39.07,-302.696,-16.244
39.1,-299.994,-16.141
39.14,-297.327,-15.969
39.17,-294.379,-15.809
39.2,-291.325,-15.637
39.23,-288.237,-15.419
39.27,-284.973,-15.213
39.3,-281.639,-15.053
39.33,-278.375,-14.881
39.36,-275.111,-14.72
39.4,-271.988,-14.606
39.43,-268.97,-14.514
39.46,-266.057,-14.365
39.49,-263.004,-14.205
39.53,-259.985,-14.022
39.56,-256.897,-13.792
39.59,-253.738,-13.563
39.63,-250.439,-13.38
39.66,-247.105,-13.254
39.69,-243.806,-13.094
39.72,-240.508,-12.945
39.76,-237.173,-12.773
39.79,-233.91,-12.555
39.82,-230.611,-12.349
39.85,-227.347,-12.143
39.89,-224.013,-11.948
39.92,-220.644,-11.753
39.95,-217.239,-11.559
39.98,-213.73,-11.352
40.02,-210.22,-11.135
40.05,-206.641,-10.906
40.08,-203.096,-10.665
40.11,-199.411,-10.436
40.15,-195.621,-10.218
40.18,-191.795,-10.012
40.21,-187.9,-9.806
40.24,-183.969,-9.577
40.28,-180.038,-9.336
40.31,-175.862,-9.142
40.34,-171.826,-8.89
40.37,-167.545,-8.626
40.41,-163.228,-8.42
40.44,-158.911,-8.214
40.47,-154.594,-7.973
40.5,-150.172,-7.778
40.54,-145.856,-7.538
40.57,-141.539,-7.286
40.6,-137.012,-7.068
40.63,-132.555,-6.828
40.67,-128.027,-6.587
40.7,-123.465,-6.381
40.73,-118.903,-6.163
40.76,-114.41,-5.911
40.8,-109.778,-5.67
40.83,-105.11,-5.441
40.86,-100.548,-5.201
40.9,-96.021,-4.949
40.93,-91.388,-4.766
40.96,-86.826,-4.548
40.99,-82.298,-4.365
41.03,-77.876,-4.147
41.06,-73.419,-3.941
41.09,-68.962,-3.666
41.12,-64.54,-3.494
41.16,-60.013,-3.219
41.19,-55.556,-3.059
41.22,-50.888,-2.761
41.25,-46.466,-2.623
41.29,-41.623,-2.245
41.32,-37.798,-2.28
41.35,-33.27,-1.558
41.38,-27.269,-1.512
41.42,-24.356,-1.455
41.45,-19.653,-0.768
41.48,-14.214,-0.813
41.51,-10.248,-0.733
41.55,-6.107,-0.458
41.58,-1.334,-0.252
41.61,3.053,-0.241
41.64,7.37,-0.057
41.68,11.792,0.126
41.71,16.109,0.412
41.74,20.25,0.756
41.77,24.426,1.214
41.81,28.532,1.741
41.84,32.639,2.337
41.87,36.955,2.864
41.9,41.518,3.23
41.94,45.869,3.46
41.97,50.256,3.712
42.0,54.573,3.826
42.03,58.574,3.975
42.07,62.469,4.135
42.1,66.4,4.353
42.13,70.19,4.513
42.16,73.77,4.731
42.2,77.455,4.949
42.23,81.035,5.155
42.26,84.72,5.384
42.3,88.405,5.625
42.33,92.02,5.819
42.36,95.634,6.094
42.39,99.46,6.312
42.43,103.145,6.541
42.46,106.725,6.828
42.49,110.41,6.999
42.52,114.059,7.206
42.56,117.674,7.423
42.59,121.289,7.629
42.62,124.904,7.916
42.65,128.764,8.133
42.69,132.274,8.408
42.72,135.959,8.603
42.75,138.731,8.775
42.78,143.61,9.348
42.82,147.681,9.153
42.85,150.945,9.714
42.88,155.823,9.863
42.91,159.297,9.966
42.95,163.017,10.321
42.98,166.843,10.425
43.01,170.317,10.585
43.04,173.827,10.837
43.08,177.371,10.986
43.11,180.811,11.204
43.14,184.215,11.398
43.17,187.619,11.604
43.21,191.164,11.811
43.24,194.533,11.971
43.27,197.797,12.166
43.3,201.06,12.395
43.34,204.254,12.59
43.37,207.448,12.83
43.4,210.641,13.048
43.43,213.73,13.243
43.47,216.783,13.414
43.5,219.801,13.575
43.53,222.714,13.747
43.56,225.627,13.918
43.6,228.505,14.09
43.63,231.242,14.251
43.66,233.734,14.411
43.7,236.261,14.594
43.73,238.577,14.732
43.76,241.069,14.892
43.79,243.596,15.064
43.83,246.368,15.328
43.86,249.211,15.557
43.89,252.159,15.763
43.92,254.756,15.889
43.96,257.143,16.061
43.99,259.599,16.175
44.02,261.81,16.267
44.05,263.986,16.404
44.09,266.127,16.519
44.12,268.127,16.633
44.15,270.023,16.771
44.18,272.058,16.977
44.22,274.059,17.137
44.25,276.129,17.275
44.28,278.375,17.378
44.31,280.341,17.538
44.35,282.481,17.733
44.38,284.482,17.802
44.41,286.342,17.974
44.44,288.307,18.111
44.48,290.167,18.249
44.51,292.097,18.363
44.54,293.993,18.432
44.57,295.642,18.501
44.61,297.397,18.661
44.64,298.976,18.718
44.67,300.485,18.913
44.7,301.819,18.936
44.74,303.293,19.165
44.77,304.451,18.879
44.8,305.013,19.199
44.83,307.504,19.303
44.87,307.925,19.28
44.9,309.575,19.704
44.93,310.838,19.509
44.97,311.856,19.726
45.0,313.084,19.623
45.03,313.997,19.726
45.06,314.874,19.704
45.1,315.681,19.784
45.13,316.383,19.807
45.16,316.98,19.887
45.19,317.577,19.91
45.23,318.173,19.967
45.26,318.84,19.978
45.29,319.437,19.967
45.32,319.963,19.978
45.36,320.49,20.047
45.39,320.946,20.116
45.42,321.402,20.208
45.45,321.858,20.23
45.49,322.209,20.276
45.52,322.806,20.334
45.55,323.192,20.345
45.58,323.683,20.402
45.62,324.139,20.379
45.65,324.49,20.46
45.68,325.087,20.402
45.71,325.368,20.448
45.75,325.824,20.517
45.78,326.21,20.46
45.81,326.561,20.46
45.84,326.877,20.471
45.88,327.158,20.517
45.91,327.509,20.528
45.94,327.824,20.517
45.97,328.07,20.54
46.01,328.456,20.46
46.04,328.632,20.414
46.07,328.947,20.322
46.1,329.123,20.242
46.14,329.298,20.265
46.17,329.474,20.196
46.2,329.579,20.208
46.23,329.684,20.253
46.27,329.895,20.253
46.3,330.106,20.127
46.33,330.176,20.059
46.37,330.316,19.956
46.4,330.386,19.864
46.43,330.421,19.807
46.46,330.421,19.772
46.5,330.492,19.784
46.53,330.562,19.715
46.56,330.492,19.669
46.59,330.597,19.589
46.63,330.527,19.474
46.66,330.527,19.486
46.69,330.527,19.394
46.72,330.492,19.291
46.76,330.421,19.177
46.79,330.351,19.085
46.82,330.246,18.913
46.85,329.93,18.821
46.89,329.649,18.776
46.92,329.333,18.73
46.95,328.877,18.627
46.98,328.351,18.535
47.02,327.579,18.421
47.05,326.596,18.226
47.08,325.262,18.042
47.11,323.824,17.859
47.15,321.964,17.619
47.18,319.858,17.504
47.21,317.928,17.332
47.24,315.752,17.195
47.28,313.506,17.023
47.31,310.944,16.794
47.34,308.276,16.588
47.37,305.574,16.427
47.41,303.012,16.29
47.44,300.345,16.175
47.47,297.572,16.026
47.5,294.589,15.877
47.54,291.431,15.706
47.57,288.307,15.511
47.6,285.043,15.328
47.63,281.744,15.133
47.67,278.41,14.961
47.7,275.217,14.846
47.73,272.128,14.709
47.77,269.075,14.594
47.8,266.127,14.468
47.83,263.214,14.274
47.86,260.126,14.056
47.9,257.037,13.838
47.93,253.668,13.644
47.96,250.369,13.495
47.99,247.176,13.288
48.03,243.771,13.128
48.06,240.543,12.933
48.09,237.244,12.716
48.12,233.91,12.555
48.16,230.646,12.361
48.19,227.312,12.154
48.22,224.013,11.96
48.25,220.644,11.742
48.29,217.204,11.559
48.32,213.8,11.375
48.35,210.291,11.112
48.38,206.641,10.929
48.42,203.096,10.699
48.45,199.376,10.482
48.48,195.586,10.31
48.51,191.936,10.081
48.55,188.005,9.863
48.58,184.18,9.646
48.61,180.144,9.394
48.64,176.143,9.153
48.68,172.037,8.867
48.71,167.72,8.66
48.74,163.474,8.454
48.77,159.087,8.214
48.81,154.735,8.007
48.84,150.348,7.813
48.87,146.066,7.549
48.9,141.539,7.286
48.94,137.117,7.057
48.97,132.625,6.862
49.0,128.133,6.679
49.04,123.711,6.449
49.07,119.183,6.22
49.1,114.656,5.968
49.13,110.129,5.705
49.17,105.566,5.453
49.2,101.004,5.178
49.23,96.336,4.949
49.26,91.669,4.754
49.3,87.106,4.525
49.33,82.509,4.342
49.36,78.052,4.09
49.39,73.56,3.838
49.43,69.102,3.586
49.46,64.68,3.345
49.49,60.083,3.139
49.52,55.626,2.967
49.56,51.064,2.738
49.59,46.396,2.532
49.62,41.974,2.314
49.65,37.411,2.051
49.69,32.779,1.821
49.72,28.427,1.592
49.75,23.935,1.294
49.78,19.373,1.088
49.82,14.88,0.871
49.85,10.423,0.676
49.88,5.896,0.458
49.91,1.509,0.309
49.95,-2.948,0.092
49.98,-7.44,-0.023
50.01,-11.862,-0.252
50.04,-16.144,-0.504
50.08,-20.425,-0.939
50.11,-24.496,-1.272
50.14,-28.743,-1.993
50.17,-32.428,-2.234
50.21,-36.569,-3.07
50.24,-42.816,-3.265
50.27,-45.659,-3.127
50.3,-50.362,-3.849
50.34,-55.17,-3.597
50.37,-58.679,-3.895
50.4,-62.891,-4.078
50.44,-66.576,-4.216
50.47,-69.945,-4.422
50.5,-73.665,-4.697
50.53,-77.245,-4.869
50.57,-80.859,-5.144
50.6,-84.544,-5.35
50.63,-88.229,-5.659
50.66,-92.02,-5.923
50.7,-95.74,-6.163
50.73,-99.284,-6.438
50.76,-103.075,-6.644
50.79,-106.689,-6.793
50.83,-110.339,-6.965
50.86,-113.989,-7.137
50.89,-117.499,-7.343
50.92,-121.114,-7.595
50.96,-124.658,-7.836
50.99,-128.343,-8.111
51.02,-131.993,-8.317
51.05,-135.432,-8.511
51.09,-139.012,-8.855
51.12,-143.294,-9.096
51.15,-147.189,-9.325
51.18,-151.12,-9.611
51.22,-154.98,-9.84
51.25,-158.806,-10.058
51.28,-162.596,-10.241
51.31,-166.351,-10.413
51.35,-169.826,-10.608
51.38,-173.476,-10.791
51.41,-176.95,-10.94
51.44,-180.354,-11.169
51.48,-183.688,-11.387
51.51,-187.233,-11.662
51.54,-190.567,-11.834
51.57,-194.217,-12.063
51.61,-197.235,-12.12
51.64,-200.499,-12.475
51.67,-203.938,-12.521
51.7,-206.956,-12.807
51.74,-210.15,-12.968
51.77,-213.239,-13.22
51.8,-216.608,-13.369
51.84,-219.556,-13.46
51.87,-222.433,-13.644
51.9,-225.171,-13.804
51.93,-227.873,-13.999
51.97,-230.435,-14.193
52.0,-233.102,-14.377
52.03,-235.384,-14.571
52.06,-237.84,-14.778
52.1,-240.402,-14.904
52.13,-242.964,-15.121
52.16,-245.561,-15.328
52.19,-248.334,-15.568
52.23,-251.247,-15.763
52.26,-254.23,-15.935
52.29,-256.967,-16.061
52.32,-259.424,-16.175
52.36,-261.6,-16.278
52.39,-263.741,-16.37
52.42,-265.811,-16.462
52.45,-267.776,-16.622
52.49,-269.847,-16.771
52.52,-271.777,-16.989
52.55,-273.918,-17.16
52.58,-275.954,-17.252
52.62,-277.919,-17.412
52.65,-279.955,-17.55
52.68,-281.955,-17.722
52.71,-284.026,-17.882
52.75,-286.061,-18.008
52.78,-288.062,-18.1
52.81,-290.132,-18.18
52.84,-291.992,-18.283
52.88,-293.747,-18.409
52.91,-295.467,-18.547
52.94,-297.221,-18.65
52.97,-298.906,-18.707
53.01,-300.24,-18.81
53.04,-301.678,-18.879
53.07,-303.082,-18.947
53.1,-304.416,-19.028
53.14,-305.679,-19.108
53.17,-306.908,-19.177
53.2,-308.101,-19.291
53.24,-309.399,-19.371
53.27,-310.522,-19.463
53.3,-311.646,-19.555
53.33,-312.769,-19.623
53.37,-313.927,-19.623
53.4,-314.734,-19.681
53.43,-315.541,-19.738
53.46,-316.243,-19.807
53.5,-316.875,-19.898
53.53,-317.542,-19.887
53.56,-318.033,-19.933
53.59,-318.629,-19.956
53.63,-319.191,-19.967
53.66,-319.788,-19.978
53.69,-320.209,-20.013
53.72,-320.77,-20.059
53.76,-321.191,-20.15
53.79,-321.683,-20.23
53.82,-321.964,-20.322
53.85,-322.595,-20.391
53.89,-323.087,-20.368
53.92,-323.648,-20.345
53.95,-323.683,-20.322
53.98,-324.385,-20.494
54.02,-324.982,-20.368
54.05,-325.262,-20.483
54.08,-325.754,-20.448
54.11,-326.07,-20.471
54.15,-326.491,-20.437
54.18,-326.877,-20.402
54.21,-327.228,-20.379
54.24,-327.438,-20.391
54.28,-327.719,-20.425
54.31,-328.07,-20.437
54.34,-328.281,-20.414
54.37,-328.526,-20.437
54.41,-328.807,-20.345
54.44,-328.912,-20.334
54.47,-329.088,-20.311
54.51,-329.263,-20.265
54.54,-329.474,-20.253
54.57,-329.579,-20.23
54.6,-329.684,-20.219
54.64,-329.825,-20.185
54.67,-329.93,-20.127
54.7,-330.106,-20.082
54.73,-330.211,-19.944
54.77,-330.211,-19.898
54.8,-330.246,-19.841
54.83,-330.316,-19.761
54.86,-330.316,-19.704
54.9,-330.316,-19.681
54.93,-330.316,-19.646
54.96,-330.386,-19.578
54.99,-330.351,-19.486
55.03,-330.351,-19.394
55.06,-330.351,-19.268
55.09,-330.211,-19.154
55.12,-330.141,-19.085
55.16,-329.93,-19.028
55.19,-329.79,-18.959
55.22,-329.579,-18.856
55.25,-329.228,-18.753
55.29,-328.842,-18.627
55.32,-328.175,-18.535
55.35,-327.614,-18.409
55.38,-326.736,-18.203
55.42,-325.298,-18.008
55.45,-323.859,-17.836
55.48,-321.928,-17.538
55.51,-319.647,-17.344
55.55,-317.542,-17.241
55.58,-315.506,-17.115
55.61,-313.4,-16.977
55.64,-310.838,-16.771
55.68,-308.136,-16.588
55.71,-305.504,-16.393
55.74,-302.977,-16.198
55.77,-300.204,-16.049
55.81,-297.397,-15.946
55.84,-294.414,-15.832
55.87,-291.325,-15.683
55.91,-288.202,-15.465
55.94,-284.798,-15.328
55.97,-281.604,-15.144
56.0,-278.34,-14.927
56.04,-275.182,-14.801
56.07,-272.128,-14.617
56.1,-269.005,-14.514
56.13,-266.127,-14.377
56.17,-263.144,-14.193
56.2,-259.95,-14.033
56.23,-256.757,-13.873
56.26,-253.528,-13.666
56.3,-250.229,-13.472
56.33,-246.86,-13.3
56.36,-243.666,-13.117
56.39,-240.437,-12.876
56.43,-237.033,-12.75
56.46,-233.875,-12.544
56.49,-230.611,-12.315
56.52,-227.242,-12.154
56.56,-223.943,-11.96
56.59,-220.538,-11.742
56.62,-217.099,-11.582
56.65,-213.66,-11.398
56.69,-210.08,-11.158
56.72,-206.395,-10.974
56.75,-202.885,-10.768
56.78,-199.271,-10.516
56.82,-195.48,-10.299
56.85,-191.76,-10.069
56.88,-187.935,-9.806
56.91,-184.039,-9.6
56.95,-180.319,-9.439
56.98,-176.353,-9.164
57.01,-172.177,-8.935
57.04,-168.001,-8.718
57.08,-163.684,-8.454
57.11,-159.262,-8.214
57.14,-154.875,-7.973
57.17,-150.383,-7.721
57.21,-145.891,-7.526
57.24,-141.539,-7.309
57.27,-137.082,-7.068
57.31,-132.59,-6.873
57.34,-128.098,-6.69
57.37,-123.57,-6.472
57.4,-119.008,-6.278
57.44,-114.586,-6.026
57.47,-109.953,-5.785
57.5,-105.356,-5.522
57.53,-100.864,-5.258
57.57,-96.231,-5.006
57.6,-91.669,-4.788
57.63,-87.036,-4.548
57.66,-82.474,-4.376
57.7,-77.982,-4.135
57.73,-73.419,-3.941
57.76,-69.032,-3.666
57.79,-64.47,-3.46
57.83,-59.978,-3.196
57.86,-55.556,-2.978
57.89,-50.888,-2.681
57.92,-46.361,-2.6
57.96,-41.728,-2.257
57.99,-37.376,-2.28
58.02,-33.621,-1.844
58.05,-27.409,-1.455
58.09,-23.654,-1.764
58.12,-19.899,-1.111
58.15,-14.389,-0.939
58.18,-10.072,-0.871
58.22,-6.177,-0.573
58.25,-1.544,-0.309
58.28,2.843,-0.206
58.31,7.23,0.011
58.35,11.722,0.183
58.38,16.074,0.458
58.41,20.285,0.813
58.44,24.532,1.272
58.48,28.568,1.776
58.51,32.639,2.383
58.54,36.92,2.933
58.58,41.553,3.253
58.61,45.869,3.402
58.64,50.186,3.608
58.67,54.573,3.723
58.71,58.539,3.861
58.74,62.434,4.078
58.77,66.435,4.261
58.8,70.085,4.456
58.84,73.63,4.697
58.87,77.209,4.914
58.9,80.894,5.144
58.93,84.685,5.361
58.97,88.3,5.602
59.0,91.914,5.842
59.03,95.599,6.083
59.06,99.284,6.335
59.1,102.969,6.541
59.13,106.619,6.736
59.16,110.234,6.919
59.19,113.884,7.16
59.23,117.499,7.366
59.26,121.114,7.664
59.29,124.763,7.881
59.32,128.589,8.191
59.36,132.309,8.328
59.39,135.959,8.603
59.42,139.188,8.626
59.45,143.118,9.164
59.49,148.102,9.29
59.52,151.19,9.405
59.55,155.437,9.921
59.58,159.332,9.932
59.62,162.807,10.287
59.65,166.667,10.447
59.68,170.247,10.596
59.71,173.651,10.825
59.75,177.336,11.032
59.78,180.811,11.204
59.81,184.145,11.49
59.84,187.689,11.696
59.88,191.093,11.845
59.91,194.498,12.017
59.94,197.797,12.223
59.98,201.131,12.418
60.01,204.359,12.613
60.04,207.553,12.796
60.07,210.677,13.025
60.11,213.765,13.185
60.14,216.888,13.311
60.17,219.836,13.426
60.2,222.714,13.621
60.24,225.627,13.838
60.27,228.435,14.022
60.3,231.137,14.216
60.33,233.664,14.411
60.37,236.156,14.571
60.4,238.507,14.732
60.43,241.104,14.881
60.46,243.631,15.041
60.5,246.298,15.339
60.53,249.352,15.557
60.56,252.124,15.717
60.59,254.546,15.923
60.63,257.037,16.106
60.66,259.494,16.198
60.69,261.635,16.324
60.72,263.846,16.507
60.76,265.987,16.645
60.79,268.057,16.771
60.82,270.128,16.885
60.85,272.304,17.023
60.89,274.409,17.115
60.92,276.375,17.252
60.95,278.41,17.378
60.98,280.376,17.561
61.02,282.341,17.768
61.05,284.377,17.939
61.08,286.342,18.042
61.11,288.202,18.191
61.15,290.202,18.237
61.18,292.062,18.295
61.21,293.887,18.363
61.24,295.572,18.558
61.28,297.292,18.684
61.31,298.906,18.902
61.34,300.31,18.89
61.38,301.433,19.142
61.41,303.96,19.119
61.44,303.679,18.867
61.47,305.89,19.452
61.51,307.434,19.016
61.54,308.031,19.555
61.57,310.066,19.371
61.6,310.558,19.555
61.64,312.102,19.635
61.67,313.014,19.589
61.7,314.067,19.692
61.73,314.804,19.726
61.77,315.681,19.795
61.8,316.383,19.818
61.83,316.945,19.875
61.86,317.612,20.047
61.9,318.384,20.07
61.93,318.559,19.99
61.96,319.437,20.093
61.99,319.788,20.013
62.03,320.244,20.242
62.06,320.981,20.185
62.09,321.227,20.311
62.12,321.999,20.322
62.16,322.104,20.276
62.19,322.841,20.368
62.22,323.262,20.208
62.25,323.578,20.379
62.29,324.034,20.425
62.32,324.525,20.483
62.35,325.017,20.471
62.38,325.403,20.54
62.42,325.894,20.448
62.45,326.21,20.437
62.48,326.736,20.414
62.51,326.912,20.414
62.55,327.263,20.483
62.58,327.544,20.494
62.61,327.859,20.528
62.64,328.21,20.494
62.68,328.526,20.437
62.71,328.807,20.299
62.74,328.983,20.219
62.78,329.193,20.173
62.81,329.333,20.185
62.84,329.439,20.23
62.87,329.614,20.276
62.91,329.72,20.334
62.94,329.965,20.334
62.97,330.176,20.185
63.0,330.281,20.047
63.04,330.281,19.956
63.07,330.386,19.933
63.1,330.421,19.898
63.13,330.457,19.91
63.17,330.527,19.864
63.2,330.632,19.795
63.23,330.667,19.658
63.26,330.667,19.52
63.3,330.632,19.429
63.33,330.597,19.36
63.36,330.597,19.28
63.39,330.457,19.245
63.43,330.351,19.268
63.46,330.281,19.188
63.49,330.176,19.096
63.52,329.895,19.016
63.56,329.649,18.936
63.59,329.369,18.833
63.62,328.947,18.718
63.65,328.316,18.604
63.69,327.719,18.409
63.72,326.701,18.134
63.75,325.403,17.939
63.78,323.894,17.745
63.82,321.788,17.573
63.85,319.717,17.47
63.88,317.752,17.298
63.91,315.681,17.149
63.95,313.506,17.0
63.98,310.979,16.805
64.01,308.206,16.668
64.05,305.539,16.507
64.08,302.907,16.381
64.11,300.275,16.233
64.14,297.467,16.095
64.18,294.589,15.9
64.21,291.466,15.683
64.24,288.342,15.465
64.27,285.114,15.236
64.31,281.674,15.098
64.34,278.305,14.972
64.37,275.111,14.846
64.4,271.988,14.709
64.44,269.04,14.594
64.47,266.127,14.457
64.5,263.214,14.285
64.53,260.091,14.067
64.57,256.862,13.896
64.6,253.703,13.77
64.63,250.404,13.575
64.66,247.105,13.414
64.7,243.877,13.22
64.73,240.648,12.968
64.76,237.314,12.75
64.79,234.015,12.578
64.83,230.716,12.361
64.86,227.312,12.212
64.89,224.013,12.028
64.92,220.644,11.822
64.96,217.204,11.65
64.99,213.87,11.41
65.02,210.361,11.135
65.05,206.816,10.906
65.09,203.201,10.677
65.12,199.411,10.482
65.15,195.691,10.287
65.18,191.83,10.104
65.22,187.97,9.909
65.25,184.109,9.657
65.28,180.038,9.405
65.31,176.003,9.176
65.35,171.896,8.924
65.38,167.755,8.672
65.41,163.509,8.42
65.45,159.227,8.179
65.48,154.875,7.973
65.51,150.523,7.732
65.54,146.136,7.503
65.58,141.679,7.274
65.61,137.222,7.068
65.64,132.765,6.816
65.67,128.203,6.61
65.71,123.64,6.415
65.74,119.078,6.197
65.77,114.481,5.98
65.8,109.988,5.751
65.84,105.461,5.487
65.87,100.899,5.258
65.9,96.301,5.029
65.93,91.704,4.811
65.97,87.106,4.617
66.0,82.649,4.387
66.03,78.087,4.135
66.06,73.56,3.895
66.1,69.102,3.631
66.13,64.54,3.46
66.16,60.118,3.219
66.19,55.591,2.99
66.23,51.028,2.761
66.26,46.431,2.52
66.29,41.974,2.28
66.32,37.376,2.005
66.36,32.814,1.753
66.39,28.357,1.569
66.42,23.9,1.34
66.45,19.337,1.146
66.49,14.705,0.974
66.52,10.423,0.802
66.55,5.966,0.515
66.58,1.544,0.367
66.62,-2.878,0.103
66.65,-7.44,0.011
66.68,-11.827,-0.298
66.71,-16.179,-0.424
66.75,-19.513,-0.871
66.78,-25.409,-1.615
66.81,-28.954,-1.546
66.85,-32.288,-2.612
66.88,-37.727,-2.933
66.91,-41.974,-3.139
66.94,-46.22,-3.448
66.98,-50.572,-3.62
67.01,-54.678,-3.723
67.04,-58.644,-3.941
67.07,-62.68,-4.09
67.11,-66.47,-4.307
67.14,-70.19,-4.468
67.17,-73.84,-4.674
67.2,-77.631,-4.846
67.24,-81.21,-5.075
67.27,-84.825,-5.327
67.3,-88.51,-5.602
67.33,-92.09,-5.842
67.37,-95.74,-6.106
67.4,-99.39,-6.323
67.43,-102.899,-6.53
67.46,-106.549,-6.805
67.5,-110.199,-6.999
67.53,-113.779,-7.217
67.56,-117.429,-7.446
67.59,-121.008,-7.664
67.63,-124.623,-7.904
67.66,-128.448,-8.145
67.69,-132.063,-8.351
67.72,-135.538,-8.557
67.76,-139.153,-8.821
67.79,-143.259,-9.073
67.82,-147.365,-9.325
67.85,-151.366,-9.52
67.89,-155.191,-9.772
67.92,-159.052,-9.966
67.95,-162.701,-10.15
67.98,-166.316,-10.356
68.02,-169.861,-10.528
68.05,-173.441,-10.734
68.08,-176.845,-10.929
68.12,-180.354,-11.146
68.15,-183.162,-11.295
68.18,-187.514,-11.799
68.21,-191.129,-11.616
68.25,-193.585,-12.04
68.28,-197.726,-12.28
68.31,-200.218,-12.235
68.34,-203.798,-12.784
68.38,-207.448,-12.739
68.41,-209.869,-12.979
68.44,-213.379,-13.323
68.47,-216.608,-13.311
68.51,-219.45,-13.529
68.54,-222.504,-13.632
68.57,-225.171,-13.827
68.6,-227.908,-14.033
68.64,-230.576,-14.205
68.67,-233.208,-14.4
68.7,-235.664,-14.526
68.73,-237.946,-14.675
68.77,-240.367,-14.881
68.8,-243.105,-15.007
68.83,-245.667,-15.19
68.86,-248.474,-15.454
68.9,-251.317,-15.671
68.93,-254.124,-15.889
68.96,-256.932,-16.038
68.99,-259.248,-16.141
69.03,-261.494,-16.255
69.06,-263.635,-16.324
69.09,-265.636,-16.485
69.12,-267.741,-16.656
69.16,-269.777,-16.817
69.19,-271.918,-16.954
69.22,-274.059,-17.069
69.25,-276.059,-17.195
69.29,-278.13,-17.275
69.32,-280.025,-17.424
69.35,-282.095,-17.573
69.38,-284.201,-17.699
69.42,-286.131,-17.813
69.45,-288.062,-17.974
69.48,-289.886,-18.111
69.52,-291.711,-18.272
69.55,-293.536,-18.363
69.58,-295.326,-18.478
69.61,-297.046,-18.581
69.65,-298.66,-18.695
69.68,-300.31,-18.764
69.71,-301.643,-18.856
69.74,-302.942,-18.97
69.78,-304.346,-19.039
69.81,-305.609,-19.119
69.84,-306.873,-19.199
69.87,-308.101,-19.291
69.91,-309.329,-19.371
69.94,-310.452,-19.474
69.97,-311.681,-19.555
70.0,-312.733,-19.646
70.04,-313.786,-19.692
70.07,-314.734,-19.715
70.1,-315.541,-19.818
70.13,-316.278,-19.818
70.17,-316.84,-19.887
70.2,-317.506,-19.91
70.23,-318.068,-19.933
70.26,-318.559,-19.978
70.3,-319.331,-19.956
70.33,-319.366,-19.933
70.36,-320.314,-20.07
70.39,-320.911,-19.978
70.43,-321.156,-20.208
70.46,-321.788,-20.242
70.49,-322.034,-20.311
70.52,-322.63,-20.368
70.56,-323.087,-20.368
70.59,-323.613,-20.368
70.62,-324.034,-20.368
70.65,-324.49,-20.391
70.69,-325.017,-20.357
70.72,-325.333,-20.391
70.75,-325.754,-20.437
70.78,-326.14,-20.425
70.82,-326.456,-20.471
70.85,-326.877,-20.46
70.88,-327.122,-20.483
70.92,-327.473,-20.471
70.95,-327.719,-20.448
70.98,-328.105,-20.448
71.01,-328.351,-20.402
71.05,-328.526,-20.368
71.08,-328.807,-20.322
71.11,-328.983,-20.242
71.14,-329.123,-20.242
71.18,-329.298,-20.322
71.21,-329.474,-20.311
71.24,-329.579,-20.265
71.27,-329.755,-20.242
71.31,-329.895,-20.162
71.34,-330.0,-20.139
71.37,-330.141,-19.99
71.4,-330.141,-19.967
71.44,-330.246,-19.956
71.47,-330.211,-19.921
71.5,-330.246,-19.91
71.53,-330.386,-19.795
71.57,-330.386,-19.681
71.6,-330.386,-19.589
71.63,-330.386,-19.532
71.66,-330.351,-19.486
71.7,-330.386,-19.383
71.73,-330.316,-19.326
71.76,-330.211,-19.28
71.79,-330.176,-19.177
71.83,-330.0,-19.016
71.86,-329.79,-18.936
71.89,-329.579,-18.821
71.92,-329.193,-18.764
71.96,-328.807,-18.684
71.99,-328.246,-18.547
72.02,-327.544,-18.443
72.05,-326.596,-18.26
72.09,-325.262,-18.042
72.12,-323.753,-17.802
72.15,-321.823,-17.55
72.18,-319.542,-17.424
72.22,-317.542,-17.264
72.25,-315.541,-17.103
72.28,-313.506,-16.954
72.32,-310.944,-16.771
72.35,-308.066,-16.633
72.38,-305.399,-16.416
72.41,-302.766,-16.233
72.45,-300.169,-16.095
72.48,-297.432,-15.935
72.51,-294.484,-15.774
72.54,-291.36,-15.637
72.58,-288.167,-15.454
72.61,-284.868,-15.259
72.64,-281.569,-15.087
72.67,-278.305,-14.892
72.71,-275.076,-14.709
72.74,-271.988,-14.571
72.77,-268.97,-14.434
72.8,-266.057,-14.308
72.84,-263.074,-14.159
72.87,-260.02,-13.999
72.9,-256.757,-13.815
72.93,-253.598,-13.632
72.97,-250.404,-13.46
73.0,-247.105,-13.277
73.03,-243.736,-13.105
73.06,-240.543,-12.91
73.1,-237.244,-12.739
73.13,-233.98,-12.532
73.16,-230.646,-12.338
73.19,-227.242,-12.189
73.23,-223.907,-12.017
73.26,-220.609,-11.834
73.29,-217.169,-11.65
73.32,-213.73,-11.444
73.36,-210.291,-11.169
73.39,-206.781,-10.917
73.42,-203.166,-10.677
73.45,-199.481,-10.436
73.49,-195.621,-10.264
73.52,-191.795,-10.069
73.55,-187.9,-9.875
73.59,-183.969,-9.634
73.62,-179.933,-9.382
73.65,-175.827,-9.142
73.68,-171.791,-8.878
73.72,-167.439,-8.66
73.75,-163.228,-8.477
73.78,-158.946,-8.259
73.81,-154.63,-8.042
73.85,-150.313,-7.813
73.88,-145.996,-7.561
73.91,-141.574,-7.332
73.94,-137.117,-7.102
73.98,-132.625,-6.85
74.01,-128.133,-6.656
74.04,-123.57,-6.427
74.07,-118.973,-6.197
74.11,-114.481,-5.968
74.14,-109.883,-5.728
74.17,-105.286,-5.476
74.2,-100.758,-5.201
74.24,-96.126,-4.983
74.27,-91.563,-4.8
74.3,-87.001,-4.582
74.33,-82.544,-4.353
74.37,-77.911,-4.124
74.4,-73.489,-3.918
74.43,-68.927,-3.712
74.46,-64.505,-3.494
74.5,-59.908,-3.253
74.53,-55.45,-3.07
74.56,-50.853,-2.807
74.59,-46.466,-2.589
74.63,-41.693,-2.303
74.66,-38.113,-2.268
74.69,-32.674,-1.535
74.72,-27.55,-1.799
74.76,-24.602,-1.409
74.79,-19.302,-0.974
74.82,-14.389,-0.962
74.85,-10.493,-0.768
74.89,-6.212,-0.447
74.92,-1.509,-0.309
74.95,2.773,-0.183
74.99,7.23,0.0
75.02,11.687,0.172
75.05,16.003,0.447
75.08,20.25,0.825
75.12,24.496,1.249
75.15,28.638,1.799
75.18,32.744,2.348
75.21,37.061,2.852
75.25,41.623,3.173
75.28,45.94,3.356
75.31,50.327,3.551
75.34,54.573,3.723
75.38,58.574,3.872
75.41,62.505,4.078
75.44,66.47,4.296
75.47,70.12,4.491
75.51,73.7,4.72
75.54,77.42,4.914
75.57,81.0,5.155
75.6,84.755,5.407
75.64,88.405,5.648
75.67,92.02,5.9
75.7,95.705,6.14
75.73,99.46,6.335
75.77,103.18,6.495
75.8,106.725,6.667
75.83,110.304,6.885
75.86,113.954,7.16
75.9,117.639,7.412
75.93,121.184,7.675
75.96,124.834,7.927
75.99,128.554,8.145
76.03,132.344,8.363
76.06,135.889,8.5
76.09,139.363,8.786
76.12,143.329,9.096
76.16,147.54,9.302
76.19,151.576,9.542
76.22,155.402,9.806
76.25,159.227,10.001
76.29,162.947,10.207
76.32,166.667,10.379
76.35,170.317,10.573
76.39,173.897,10.78
76.42,177.441,10.952
76.45,180.846,11.181
76.48,184.32,11.387
76.52,187.724,11.57
76.55,191.164,11.765
76.58,194.568,11.971
76.61,197.832,12.2
76.65,201.166,12.395
76.68,204.395,12.567
76.71,207.483,12.807
76.74,210.677,13.002
76.78,213.765,13.197
76.81,216.924,13.311
76.84,219.766,13.529
76.87,222.784,13.747
76.91,225.662,13.896
76.94,228.365,14.113
76.97,231.102,14.274
77.0,233.664,14.365
77.04,236.226,14.526
77.07,238.542,14.663
77.1,240.964,14.835
77.13,243.456,15.03
77.17,246.088,15.259
77.2,249.071,15.511
77.23,252.054,15.683
77.26,254.651,15.832
77.3,257.213,15.992
77.33,259.634,16.095
77.36,261.705,16.267
77.39,263.846,16.473
77.43,265.987,16.611
77.46,268.022,16.748
77.49,270.163,16.84
77.52,272.234,16.977
77.56,274.304,17.103
77.59,276.305,17.241
77.62,278.27,17.401
77.66,280.305,17.55
77.69,282.376,17.687
77.72,284.377,17.848
77.75,286.342,17.985
77.79,288.342,18.1
77.82,290.237,18.146
77.85,292.027,18.272
77.88,293.747,18.375
77.92,295.537,18.535
77.95,297.151,18.627
77.98,298.801,18.867
78.01,300.415,18.833
78.05,301.924,19.051
78.08,303.012,18.925
78.11,303.644,19.177
78.14,306.206,19.337
78.18,306.978,19.177
78.21,308.452,19.566
78.24,309.645,19.383
78.27,310.628,19.635
78.31,312.102,19.532
78.34,313.084,19.555
78.37,314.137,19.578
78.4,314.839,19.669
78.44,315.717,19.738
78.47,316.348,19.807
78.5,316.98,19.875
78.53,317.612,19.956
78.57,318.208,19.944
78.6,318.805,19.944
78.63,319.366,19.978
78.66,319.823,20.07
78.7,320.349,20.162
78.73,320.946,20.15
78.76,321.402,20.185
78.79,321.823,20.265
78.83,322.314,20.311
78.86,322.701,20.276
78.89,323.016,20.46
78.92,323.613,20.494
78.96,323.929,20.54
78.99,324.49,20.609
79.02,324.947,20.574
79.06,325.438,20.517
79.09,325.929,20.414
79.12,326.21,20.391
79.15,326.526,20.425
79.19,326.877,20.437
79.22,327.193,20.483
79.25,327.509,20.471
79.28,327.859,20.448
79.32,328.105,20.414
79.35,328.421,20.391
79.38,328.632,20.391
79.41,328.842,20.379
79.45,329.088,20.334
79.48,329.298,20.253
79.51,329.404,20.242
79.54,329.579,20.311
79.58,329.825,20.185
79.61,329.895,20.139
79.64,330.0,20.173
79.67,330.141,20.185
79.71,330.316,20.059
79.74,330.421,19.921
79.77,330.351,19.91
79.8,330.492,19.864
79.84,330.597,19.704
79.87,330.667,19.6
79.9,330.632,19.486
79.93,330.562,19.509
79.97,330.562,19.452
80.0,330.457,19.474
80.03,330.457,19.532
80.06,330.492,19.406
80.1,330.492,19.245
80.13,330.421,19.051
80.16,330.176,18.902
80.19,329.965,18.833
80.23,329.684,18.764
80.26,329.298,18.741
80.29,328.912,18.673
80.32,328.456,18.512
80.36,327.789,18.295
80.39,326.701,18.077
80.42,325.368,17.962
80.46,323.859,17.768
80.49,321.893,17.573
80.52,319.753,17.481
80.55,317.787,17.332
80.59,315.717,17.172
80.62,313.541,16.977
80.65,310.873,16.771
80.68,308.101,16.633
80.72,305.539,16.485
80.75,302.942,16.313
80.78,300.204,16.198
80.81,297.432,16.049
80.85,294.554,15.877
80.88,291.536,15.648
80.91,288.307,15.431
80.94,284.973,15.27
80.98,281.639,15.11
81.01,278.34,14.938
81.04,275.041,14.823
81.07,271.883,14.732
81.11,269.005,14.583
81.14,266.127,14.365
81.17,263.074,14.205
81.2,259.985,14.102
81.24,256.967,13.896
81.27,253.633,13.747
81.3,250.439,13.586
81.33,247.211,13.38
81.37,243.947,13.14
81.4,240.648,12.922
81.43,237.314,12.75
81.46,233.91,12.613
81.5,230.716,12.429
81.53,227.417,12.2
81.56,224.048,11.983
81.59,220.679,11.765
81.63,217.31,11.559
81.66,213.905,11.341
81.69,210.326,11.146
81.73,206.746,10.963
81.76,203.166,10.745
81.79,199.481,10.516
81.82,195.831,10.321
81.86,191.971,10.092
81.89,188.145,9.84
81.92,184.25,9.577
81.95,180.144,9.336
81.99,176.073,9.119
82.02,171.896,8.89
82.05,167.615,8.706
82.08,163.263,8.489
82.12,158.911,8.248
82.15,154.77,7.996
82.18,150.523,7.755
82.21,146.207,7.538
82.25,141.855,7.263
82.28,137.292,7.057
82.31,132.835,6.873
82.34,128.273,6.644
82.38,123.711,6.415
82.41,119.183,6.175
82.44,114.656,5.9
82.47,110.094,5.636
82.51,105.461,5.43
82.54,100.864,5.247
82.57,96.196,5.04
82.6,91.669,4.834
82.64,87.036,4.605
82.67,82.614,4.353
82.7,78.192,4.101
82.73,73.595,3.895
82.77,69.208,3.654
82.8,64.645,3.414
82.83,60.153,3.208
82.86,55.661,2.956
82.9,51.169,2.704
82.93,46.571,2.417
82.96,42.044,2.199
82.99,37.341,1.993
83.03,32.709,1.821
83.06,28.287,1.569
83.09,23.759,1.375
83.13,19.232,1.146
83.16,14.74,0.951
83.19,10.423,0.699
83.22,6.036,0.493
83.26,1.579,0.298
83.29,-2.843,0.172
83.32,-7.405,0.0
83.35,-11.722,-0.149
83.39,-16.109,-0.527
83.42,-20.285,-0.779
83.45,-24.602,-1.398
83.48,-28.357,-1.65
83.52,-32.007,-2.509
83.55,-38.289,-2.99
83.58,-41.518,-2.83
83.61,-45.729,-3.689
83.65,-51.028,-3.563
83.68,-54.784,-3.735
83.71,-58.89,-3.929
83.74,-62.82,-4.044
83.78,-66.47,-4.261
83.81,-70.296,-4.525
83.84,-73.875,-4.651
83.87,-77.42,-4.892
83.91,-80.859,-5.098
83.94,-84.579,-5.407
83.97,-88.44,-5.648
84.0,-92.09,-5.9
84.04,-95.81,-6.14
84.07,-99.46,-6.369
84.1,-102.969,-6.587
84.13,-106.689,-6.816
84.17,-110.234,-7.022
84.2,-113.673,-7.263
84.23,-117.323,-7.503
84.26,-120.938,-7.721
84.3,-124.553,-7.962
84.33,-128.273,-8.214
84.36,-132.098,-8.385
84.39,-135.468,-8.557
84.43,-139.082,-8.855
84.46,-143.224,-9.084
84.49,-147.189,-9.359
84.53,-151.26,-9.565
84.56,-155.156,-9.772
84.59,-158.911,-9.978
84.62,-162.737,-10.195
84.66,-166.316,-10.402
84.69,-169.826,-10.619
84.72,-173.335,-10.837
84.75,-176.915,-11.066
84.79,-180.284,-11.261
84.82,-183.899,-11.49
84.85,-187.268,-11.627
84.88,-190.883,-11.845
84.92,-193.69,-11.914
84.95,-197.165,-12.338
84.98,-200.639,-12.338
85.01,-203.728,-12.704
85.05,-207.343,-12.819
85.08,-210.431,-13.025
85.11,-213.835,-13.174
85.14,-216.643,-13.254
85.18,-219.45,-13.518
85.21,-222.328,-13.655
85.24,-225.136,-13.873
85.27,-227.943,-14.102
85.31,-230.646,-14.251
85.34,-233.138,-14.423
85.37,-235.629,-14.583
85.4,-238.051,-14.72
85.44,-240.543,-14.892
85.47,-243.14,-15.098
85.5,-245.807,-15.339
85.53,-248.65,-15.591
85.57,-251.633,-15.763
85.6,-254.405,-15.935
85.63,-257.108,-16.049
85.66,-259.424,-16.141
85.7,-261.635,-16.255
85.73,-263.705,-16.37
85.76,-265.811,-16.473
85.79,-267.882,-16.576
85.83,-269.812,-16.737
85.86,-271.742,-16.931
85.89,-273.953,-17.092
85.93,-275.989,-17.195
85.96,-277.954,-17.332
85.99,-279.919,-17.481
86.02,-281.92,-17.642
86.06,-284.026,-17.79
86.09,-286.026,-17.951
86.12,-288.097,-18.077
86.15,-290.097,-18.168
86.19,-291.922,-18.306
86.22,-293.712,-18.443
86.25,-295.467,-18.581
86.28,-297.186,-18.684
86.32,-298.871,-18.764
86.35,-300.45,-18.787
86.38,-301.854,-18.799
86.41,-303.188,-18.856
86.45,-304.451,-18.913
86.48,-305.644,-19.005
86.51,-306.943,-19.096
86.54,-308.171,-19.165
86.58,-309.329,-19.268
86.61,-310.452,-19.383
86.64,-311.61,-19.474
86.67,-312.698,-19.555
86.71,-313.681,-19.612
86.74,-314.558,-19.669
86.77,-315.366,-19.749
86.8,-316.138,-19.807
86.84,-316.84,-19.83
86.87,-317.506,-19.852
86.9,-318.033,-19.887
86.93,-318.629,-19.933
86.97,-319.226,-19.978
87.0,-319.753,-20.001
87.03,-320.279,-20.093
87.06,-320.77,-20.15
87.1,-321.297,-20.219
87.13,-321.718,-20.219
87.16,-322.139,-20.276
87.2,-322.665,-20.265
87.23,-322.806,-20.334
87.26,-323.613,-20.437
87.29,-324.034,-20.368
87.33,-324.49,-20.471
87.36,-324.982,-20.414
87.39,-325.368,-20.425
87.42,-325.754,-20.425
87.46,-326.175,-20.414
87.49,-326.456,-20.391
87.52,-326.877,-20.402
87.55,-327.122,-20.402
87.59,-327.438,-20.425
87.62,-327.789,-20.402
87.65,-328.035,-20.391
87.68,-328.316,-20.391
87.72,-328.526,-20.379
87.75,-328.772,-20.345
87.78,-328.912,-20.288
87.81,-329.088,-20.334
87.85,-329.333,-20.288
87.88,-329.509,-20.219
87.91,-329.649,-20.173
87.94,-329.755,-20.104
87.98,-329.825,-20.104
88.01,-330.035,-20.024
88.04,-330.07,-20.001
88.07,-330.141,-19.978
88.11,-330.211,-19.898
88.14,-330.246,-19.898
88.17,-330.386,-19.795
88.2,-330.351,-19.692
88.24,-330.386,-19.658
88.27,-330.351,-19.612
88.3,-330.386,-19.566
88.33,-330.316,-19.532
88.37,-330.351,-19.452
88.4,-330.281,-19.337
88.43,-330.246,-19.257
88.46,-330.141,-19.131
88.5,-330.035,-19.016
88.53,-329.86,-18.902
88.56,-329.579,-18.833
88.6,-329.263,-18.753
88.63,-328.842,-18.638
88.66,-328.351,-18.489
88.69,-327.684,-18.329
88.73,-326.807,-18.134
88.76,-325.403,-17.916
88.79,-323.753,-17.779
88.82,-321.893,-17.504
88.86,-319.612,-17.344
88.89,-317.542,-17.229
88.92,-315.576,-17.057
88.95,-313.47,-16.885
88.99,-310.909,-16.714
89.02,-308.066,-16.542
89.05,-305.328,-16.37
89.08,-302.766,-16.233
89.12,-300.099,-16.061
89.15,-297.256,-15.969
89.18,-294.414,-15.832
89.21,-291.36,-15.637
89.25,-288.167,-15.442
89.28,-284.938,-15.236
89.31,-281.534,-15.11
89.34,-278.235,-14.961
89.38,-275.006,-14.823
89.41,-271.883,-14.686
89.44,-268.935,-14.514
89.47,-265.987,-14.377
89.51,-263.109,-14.171
89.54,-259.985,-13.999
89.57,-256.827,-13.827
89.6,-253.668,-13.598
89.64,-250.264,-13.426
89.67,-247.035,-13.266
89.7,-243.842,-13.025
89.73,-240.437,-12.842
89.77,-237.173,-12.693
89.8,-233.875,-12.498
89.83,-230.505,-12.349
89.86,-227.277,-12.166
89.9,-223.872,-11.948
89.93,-220.503,-11.776
89.96,-217.134,-11.559
90.0,-213.66,-11.364
90.03,-210.115,-11.146
90.06,-206.781,-10.974
90.09,-203.377,-10.722
90.13,-199.306,-10.493
90.16,-195.586,-10.344
90.19,-191.866,-10.047
90.22,-188.005,-9.875
90.26,-184.039,-9.6
90.29,-180.003,-9.348
90.32,-175.897,-9.119
90.35,-171.651,-8.947
90.39,-167.509,-8.752
90.42,-163.228,-8.5
90.45,-158.946,-8.294
90.48,-154.7,-7.985
90.52,-150.278,-7.744
90.55,-145.961,-7.503
90.58,-141.574,-7.251
90.61,-137.012,-7.034
90.65,-132.484,-6.839
90.68,-128.027,-6.633
90.71,-123.5,-6.381
90.74,-118.973,-6.14
90.78,-114.375,-5.877
90.81,-109.883,-5.636
90.84,-105.215,-5.407
90.87,-100.618,-5.224
90.91,-96.056,-4.983
90.94,-91.493,-4.777
90.97,-87.001,-4.513
91.0,-82.474,-4.273
91.04,-77.911,-4.044
91.07,-73.384,-3.872
91.1,-68.892,-3.643
91.13,-64.33,-3.482
91.17,-59.767,-3.242
91.2,-55.345,-3.07
91.23,-50.783,-2.749
91.27,-46.326,-2.589
91.3,-41.623,-2.199
91.33,-37.552,-2.245
91.36,-33.446,-1.695
91.4,-27.234,-1.501
91.43,-24.04,-1.558
91.46,-19.794,-0.836
91.49,-14.214,-0.756
91.53,-9.967,-0.676
91.56,-5.966,-0.435
91.59,-1.193,-0.229
91.62,3.229,-0.229
91.66,7.51,-0.034
91.69,12.003,0.149
91.72,16.249,0.435
91.75,20.425,0.779
91.79,24.532,1.249
91.82,28.638,1.764
91.85,32.674,2.337
91.88,37.025,2.83
91.92,41.553,3.196
91.95,45.905,3.437
91.98,50.327,3.666
92.01,54.643,3.815
92.05,58.609,3.987
92.08,62.61,4.158
92.11,66.611,4.353
92.14,70.331,4.502
92.18,73.946,4.697
92.21,77.631,4.949
92.24,81.245,5.178
92.27,84.93,5.407
92.31,88.475,5.613
92.34,92.125,5.831
92.37,95.775,6.049
92.4,99.495,6.255
92.44,103.11,6.472
92.47,106.725,6.747
92.5,110.339,6.988
92.53,113.884,7.251
92.57,117.604,7.492
92.6,121.184,7.698
92.63,124.904,7.939
92.67,128.729,8.111
92.7,132.484,8.351
92.73,135.994,8.592
92.76,139.503,8.867
92.8,143.504,9.142
92.83,147.61,9.371
92.86,151.576,9.6
92.89,155.542,9.817
92.93,159.402,9.978
92.96,163.087,10.173
92.99,166.808,10.379
93.02,170.457,10.573
93.06,173.897,10.837
93.09,177.441,11.043
93.12,180.916,11.215
93.15,184.32,11.421
93.19,187.865,11.627
93.22,191.304,11.799
93.25,194.673,11.994
93.28,198.007,12.212
93.32,201.236,12.418
93.35,204.359,12.635
93.38,207.588,12.83
93.41,210.747,13.014
93.45,213.8,13.197
93.48,216.783,13.414
93.51,219.872,13.621
93.54,222.89,13.781
93.58,225.627,13.976
93.61,228.435,14.148
93.64,231.172,14.285
93.67,233.839,14.4
93.71,236.366,14.549
93.74,238.647,14.743
93.77,241.174,14.927
93.8,243.631,15.144
93.84,246.439,15.408
93.87,249.316,15.568
93.9,252.124,15.728
93.93,254.791,15.843
93.97,257.248,15.969
94.0,259.669,16.106
94.03,261.845,16.233
94.07,263.951,16.381
94.1,265.987,16.496
94.13,267.952,16.691
94.16,270.128,16.817
94.2,272.304,16.931
94.23,274.234,17.103
94.26,276.27,17.298
94.29,278.34,17.412
94.33,280.341,17.55
94.36,282.446,17.687
94.39,284.447,17.779
94.42,286.377,17.905
94.46,288.448,18.042
94.49,290.273,18.203
94.52,292.168,18.363
94.55,293.887,18.455
94.59,295.677,18.615
94.62,297.362,18.718
94.65,299.187,18.787
94.68,300.485,18.821
94.72,302.17,18.993
94.75,302.661,18.833
94.78,304.24,19.326
94.81,306.241,19.096
94.85,306.873,19.36
94.88,308.768,19.429
94.91,309.645,19.348
94.94,311.014,19.52
94.98,312.067,19.44
95.01,312.979,19.658
95.04,314.032,19.681
95.07,314.874,19.784
95.11,315.646,19.875
95.14,316.418,19.875
95.17,317.015,19.864
95.2,317.647,19.875
95.24,318.103,19.91
95.27,318.665,19.99
95.3,319.261,20.036
95.33,319.717,20.104
95.37,320.209,20.196
95.4,320.876,20.242
95.43,321.367,20.208
95.47,321.823,20.208
95.5,322.174,20.23
95.53,322.665,20.334
95.56,323.157,20.357
95.6,323.648,20.379
95.63,324.104,20.391
95.66,324.49,20.494
95.69,325.052,20.448
95.73,325.368,20.448
95.76,325.789,20.483
95.79,326.21,20.448
95.82,326.596,20.448
95.86,326.947,20.414
95.89,327.228,20.437
95.92,327.614,20.379
95.95,327.93,20.299
95.99,328.14,20.311
96.02,328.421,20.322
96.05,328.596,20.391
96.08,328.807,20.448
96.12,329.123,20.448
96.15,329.333,20.379
96.18,329.509,20.299
96.21,329.72,20.196
96.25,329.825,20.139
96.28,329.93,20.116
96.31,330.141,20.07
96.34,330.211,19.967
96.38,330.211,19.978
96.41,330.351,19.978
96.44,330.457,19.875
96.47,330.527,19.738
96.51,330.527,19.726
96.54,330.562,19.715
96.57,330.527,19.715
96.6,330.527,19.704
96.64,330.527,19.669
96.67,330.562,19.52
96.7,330.562,19.406
96.74,330.632,19.245
96.77,330.421,19.119
96.8,330.316,19.085
96.83,330.035,19.062
96.87,329.895,19.039
96.9,329.684,18.959
96.93,329.439,18.799
96.96,329.123,18.581
97.0,328.526,18.398
97.03,327.684,18.317
97.06,326.561,18.168
97.09,325.122,18.088
97.13,323.718,17.962
97.16,321.893,17.71
97.19,319.788,17.561
97.22,317.963,17.275
97.26,315.787,17.034
97.29,313.541,16.885
97.32,310.979,16.714
97.35,308.136,16.588
97.39,305.539,16.427
97.42,302.802,16.278
97.45,300.064,16.152
97.48,297.397,15.958
97.52,294.484,15.717
97.55,291.29,15.591
97.58,288.132,15.454
97.61,284.833,15.328
97.65,281.499,15.202
97.68,278.13,15.075
97.71,275.041,14.915
97.74,272.023,14.72
97.78,269.075,14.537
97.81,266.162,14.365
97.84,263.109,14.205
97.87,259.95,14.067
97.91,256.792,13.861
97.94,253.458,13.689
97.97,250.194,13.529
98.0,247.0,13.277
98.04,243.596,13.094
98.07,240.402,12.945
98.1,237.138,12.773
98.14,233.839,12.613
98.17,230.576,12.452
98.2,227.312,12.269
98.23,223.907,12.086
98.27,220.679,11.868
98.3,217.239,11.616
98.33,213.765,11.41
98.36,210.361,11.146
98.4,206.781,10.906
98.43,203.061,10.688
98.46,199.376,10.47
98.49,195.621,10.264
98.53,191.795,10.047
98.56,187.9,9.829
98.59,183.934,9.611
98.62,179.933,9.371
98.66,175.897,9.13
98.69,171.721,8.901
98.72,167.474,8.683
98.75,163.298,8.454
98.79,159.016,8.156
98.82,154.735,7.927
98.85,150.208,7.732
98.88,145.856,7.526
98.92,141.434,7.309
98.95,136.942,7.125
98.98,132.484,6.896
99.01,128.027,6.656
99.05,123.57,6.392
99.08,119.008,6.14
99.11,114.375,5.934
99.14,109.918,5.705
99.18,105.321,5.464
99.21,100.723,5.258
99.24,96.126,5.052
99.27,91.563,4.811
99.31,87.036,4.559
99.34,82.509,4.319
99.37,78.052,4.067
99.4,73.524,3.826
99.44,68.927,3.608
99.47,64.435,3.414
99.5,60.013,3.185
99.54,55.45,2.978
99.57,50.923,2.715
99.6,46.326,2.509
99.63,41.798,2.303
99.67,37.271,2.073
99.7,32.709,1.867
99.73,28.322,1.65
99.76,23.83,1.398
99.8,19.373,1.18
99.83,14.88,0.894
99.86,10.388,0.71
99.89,5.896,0.481
99.93,1.404,0.321
99.96,-3.088,0.08
99.99,-7.545,-0.023
100.02,-11.967,-0.309
100.06,-16.249,-0.493
100.09,-20.601,-1.02
100.12,-24.461,-1.191
100.15,-28.006,-2.016
100.19,-33.972,-2.577
100.22,-37.166,-2.543
100.25,-41.553,-3.391
100.28,-46.606,-3.322
100.32,-50.502,-3.608
100.35,-54.854,-3.826
100.38,-58.82,-3.952
100.41,-62.54,-4.158
100.45,-66.681,-4.376
100.48,-70.436,-4.468
100.51,-74.016,-4.72
100.54,-77.631,-4.914
100.58,-81.175,-5.224
100.61,-85.001,-5.453
100.64,-88.651,-5.659
100.67,-92.371,-5.9
100.71,-96.056,-6.129
100.74,-99.67,-6.312
100.77,-103.215,-6.53
100.81,-106.865,-6.724
100.84,-110.304,-6.954
100.87,-113.989,-7.194
100.9,-117.569,-7.4
100.94,-121.043,-7.687
100.97,-124.763,-7.95
101.0,-128.519,-8.133
101.03,-132.169,-8.374
101.07,-135.643,-8.569
101.1,-139.223,-8.878
101.13,-143.504,-9.119
101.16,-147.47,-9.359
101.2,-151.436,-9.634
101.23,-155.402,-9.783
101.26,-159.122,-9.955
101.29,-162.737,-10.15
101.33,-166.422,-10.333
101.36,-169.931,-10.493
101.39,-173.511,-10.745
101.42,-176.915,-10.929
101.46,-180.424,-11.169
101.49,-183.759,-11.364
101.52,-187.479,-11.639
101.55,-190.146,-11.673
101.59,-194.322,-12.257
101.62,-197.34,-11.983
101.65,-200.008,-12.578
101.68,-204.64,-12.67
101.72,-206.921,-12.704
101.75,-210.466,-13.151
101.78,-213.73,-13.105
101.81,-216.467,-13.323
101.85,-219.45,-13.54
101.88,-222.469,-13.701
101.91,-225.311,-13.85
101.94,-228.084,-14.022
101.98,-230.646,-14.182
102.01,-233.278,-14.377
102.04,-235.664,-14.468
102.07,-238.086,-14.652
102.11,-240.543,-14.846
102.14,-243.175,-15.064
102.17,-245.772,-15.27
102.21,-248.615,-15.522
102.24,-251.387,-15.717
102.27,-254.3,-15.889
102.3,-257.108,-16.003
102.34,-259.424,-16.095
102.37,-261.565,-16.278
102.4,-263.741,-16.416
102.43,-265.811,-16.507
102.47,-267.812,-16.668
102.5,-269.882,-16.794
102.53,-271.918,-16.931
102.56,-274.094,-17.046
102.6,-276.129,-17.149
102.63,-278.024,-17.309
102.66,-279.99,-17.493
102.69,-282.06,-17.63
102.73,-284.131,-17.733
102.76,-286.096,-17.825
102.79,-288.097,-17.974
102.82,-290.027,-18.1
102.86,-291.922,-18.237
102.89,-293.817,-18.34
102.92,-295.642,-18.466
102.95,-297.292,-18.604
102.99,-298.941,-18.73
103.02,-300.415,-18.821
103.05,-301.854,-18.89
103.08,-303.152,-18.993
103.12,-304.486,-19.096
103.15,-305.785,-19.165
103.18,-307.083,-19.211
103.21,-308.311,-19.257
103.25,-309.54,-19.303
103.28,-310.698,-19.371
103.31,-311.856,-19.44
103.34,-312.944,-19.486
103.38,-313.786,-19.612
103.41,-314.699,-19.704
103.44,-315.506,-19.784
103.47,-316.243,-19.841
103.51,-316.945,-19.83
103.54,-317.542,-19.898
103.57,-318.068,-19.921
103.61,-318.7,-19.967
103.64,-319.226,-19.967
103.67,-319.753,-20.059
103.7,-320.244,-20.093
103.74,-320.84,-20.185
103.77,-321.156,-20.139
103.8,-321.507,-20.219
103.83,-322.385,-20.185
103.87,-322.595,-20.185
103.9,-323.122,-20.334
103.93,-323.613,-20.311
103.96,-324.034,-20.379
104.0,-324.525,-20.345
104.03,-325.017,-20.345
104.06,-325.368,-20.334
104.09,-325.719,-20.368
104.13,-326.175,-20.345
104.16,-326.491,-20.357
104.19,-326.807,-20.402
104.22,-327.158,-20.402
104.26,-327.438,-20.414
104.29,-327.824,-20.357
104.32,-328.0,-20.334
104.35,-328.246,-20.402
104.39,-328.526,-20.379
104.42,-328.737,-20.368
104.45,-328.947,-20.334
104.48,-329.053,-20.322
104.52,-329.333,-20.276
104.55,-329.544,-20.219
104.58,-329.614,-20.162
104.61,-329.72,-20.139
104.65,-329.755,-20.162
104.68,-329.965,-20.162
104.71,-330.106,-20.082
104.74,-330.141,-19.978
104.78,-330.211,-19.933
104.81,-330.316,-19.852
104.84,-330.386,-19.726
104.87,-330.386,-19.646
104.91,-330.386,-19.635
104.94,-330.421,-19.566
104.97,-330.351,-19.497
105.01,-330.351,-19.474
105.04,-330.316,-19.406
105.07,-330.316,-19.326
105.1,-330.211,-19.199
105.14,-330.106,-19.142
105.17,-329.965,-19.062
105.2,-329.404,-18.902
105.23,-328.947,-18.879
105.27,-329.123,-18.776
105.3,-329.018,-18.604
105.33,-328.561,-18.558
105.36,-327.719,-18.398
105.4,-326.491,-18.203
105.43,-325.087,-17.997
105.46,-323.473,-17.79
105.49,-321.648,-17.596
105.53,-319.612,-17.412
105.56,-317.542,-17.275
105.59,-315.471,-17.08
105.62,-313.26,-16.943
105.66,-310.768,-16.737
105.69,-307.996,-16.565
105.72,-305.434,-16.439
105.75,-302.802,-16.278
105.79,-300.204,-16.118
105.82,-297.292,-15.969
105.85,-294.379,-15.809
105.88,-291.396,-15.568
105.92,-288.132,-15.362
105.95,-284.798,-15.202
105.98,-281.534,-15.018
106.01,-278.235,-14.904
106.05,-275.111,-14.801
106.08,-272.023,-14.663
106.11,-268.935,-14.526
106.14,-265.987,-14.354
106.18,-262.933,-14.205
106.21,-259.88,-14.033
106.24,-256.757,-13.827
106.28,-253.423,-13.655
106.31,-250.264,-13.472
106.34,-246.93,-13.254
106.37,-243.701,-13.071
106.41,-240.437,-12.865
106.44,-237.033,-12.704
106.47,-233.804,-12.509
106.5,-230.505,-12.326
106.54,-227.171,-12.154
106.57,-223.943,-11.937
106.6,-220.503,-11.719
106.63,-217.064,-11.547
106.67,-213.625,-11.352
106.7,-210.08,-11.146
106.73,-206.43,-10.986
106.76,-202.85,-10.745
106.8,-199.06,-10.573
106.83,-195.41,-10.344
106.86,-191.479,-10.069
106.89,-187.584,-9.852
106.93,-183.794,-9.6
106.96,-179.898,-9.336
106.99,-175.792,-9.142
107.02,-171.686,-8.935
107.06,-167.509,-8.718
107.09,-163.298,-8.431
107.12,-158.876,-8.202
107.15,-154.63,-7.962
107.19,-150.208,-7.71
107.22,-145.715,-7.526
107.25,-141.293,-7.332
107.28,-136.836,-7.114
107.32,-132.274,-6.919
107.35,-127.852,-6.667
107.38,-123.36,-6.415
107.41,-118.797,-6.175
107.45,-114.27,-5.945
107.48,-109.743,-5.728
107.51,-105.11,-5.533
107.54,-100.548,-5.315
107.58,-95.985,-5.075
107.61,-91.423,-4.823
107.64,-86.861,-4.582
107.68,-82.439,-4.365
107.71,-77.911,-4.113
107.74,-73.419,-3.918
107.77,-68.857,-3.654
107.81,-64.4,-3.448
107.84,-59.837,-3.185
107.87,-55.38,-2.967
107.9,-50.713,-2.692
107.94,-46.291,-2.509
107.97,-41.447,-2.234
108.0,-37.833,-2.257
108.03,-32.463,-1.558
108.07,-27.304,-1.787
108.1,-24.321,-1.466
108.13,-19.127,-1.02
108.16,-14.214,-0.997
108.2,-10.353,-0.79
108.23,-6.071,-0.458
108.26,-1.334,-0.332
108.29,2.948,-0.195
108.33,7.475,0.0
108.36,11.967,0.16
108.39,16.249,0.435
108.42,20.496,0.825
108.46,24.637,1.237
108.49,28.638,1.799
108.52,32.779,2.314
108.55,37.201,2.749
108.59,41.658,3.082
108.62,45.975,3.322
108.65,50.186,3.586
108.68,54.468,3.769
108.72,58.434,3.941
108.75,62.469,4.113
108.78,66.505,4.25
108.81,70.226,4.41
108.85,73.805,4.639
108.88,77.42,4.869
108.91,81.105,5.132
108.94,84.895,5.361
108.98,88.51,5.602
109.01,92.125,5.831
109.04,95.88,6.071
109.08,99.565,6.289
109.11,103.215,6.53
109.14,106.83,6.759
109.17,110.41,7.011
109.21,114.059,7.217
109.24,117.604,7.458
109.27,121.359,7.664
109.3,125.15,7.847
109.34,128.87,8.007
109.37,132.484,8.317
109.4,136.029,8.466
109.43,138.872,8.763
109.47,143.925,9.302
109.5,147.681,9.107
109.53,151.225,9.691
109.56,155.893,9.794
109.6,159.332,9.966
109.63,163.123,10.253
109.66,166.913,10.413
109.69,170.317,10.608
109.73,173.897,10.848
109.76,177.477,11.009
109.79,180.951,11.204
109.82,184.285,11.421
109.86,187.689,11.685
109.89,191.269,11.868
109.92,194.673,12.017
109.95,197.902,12.212
109.99,201.271,12.406
110.02,204.57,12.555
110.05,207.764,12.716
110.08,210.887,12.876
110.12,213.87,13.082
110.15,216.783,13.3
110.18,219.766,13.54
110.21,222.644,13.724
110.25,225.452,13.941
110.28,228.4,14.113
110.31,231.242,14.216
110.35,233.769,14.388
110.38,236.191,14.56
110.41,238.577,14.743
110.44,241.069,14.938
110.48,243.631,15.121
110.51,246.474,15.362
110.54,249.492,15.511
110.57,252.229,15.671
110.61,254.756,15.843
110.64,257.143,16.026
110.67,259.459,16.198
110.7,261.67,16.359
110.74,263.846,16.507
110.77,266.022,16.622
110.8,268.092,16.725
110.83,270.233,16.874
110.87,272.339,16.989
110.9,274.374,17.172
110.93,276.48,17.298
110.96,278.375,17.447
111.0,280.376,17.607
111.03,282.481,17.79
111.06,284.552,17.825
111.09,286.342,17.974
111.13,288.377,18.088
111.16,290.237,18.226
111.19,292.097,18.329
111.22,293.852,18.524
111.26,295.712,18.569
111.29,297.502,18.718
111.32,299.257,18.627
111.35,300.204,18.833
111.39,302.205,18.925
111.42,302.486,18.879
111.45,304.977,19.326
111.48,305.89,19.016
111.52,307.118,19.566
111.55,308.733,19.291
111.58,309.575,19.543
111.61,311.154,19.429
111.65,311.996,19.532
111.68,313.225,19.6
111.71,314.067,19.669
111.75,314.804,19.795
111.78,315.576,19.875
111.81,316.313,19.898
111.84,316.98,19.944
111.88,317.612,19.956
111.91,318.138,19.978
111.94,318.735,20.013
111.97,319.331,20.093
112.01,319.858,20.127
112.04,320.419,20.173
112.07,320.911,20.196
112.1,321.437,20.219
112.14,321.823,20.23
112.17,322.244,20.253
112.2,322.736,20.311
112.23,323.157,20.368
112.27,323.648,20.402
112.3,324.069,20.425
112.33,324.631,20.402
112.36,325.052,20.368
112.4,325.508,20.357
112.43,325.929,20.299
112.46,326.175,20.357
112.49,326.491,20.425
112.53,326.877,20.471
112.56,327.228,20.471
112.59,327.509,20.414
112.62,327.859,20.391
112.66,328.07,20.402
112.69,328.351,20.437
112.72,328.632,20.425
112.75,328.842,20.357
112.79,328.983,20.368
112.82,329.298,20.322
112.85,329.474,20.219
112.88,329.614,20.185
112.92,329.72,20.219
112.95,329.93,20.139
112.98,330.035,20.127
113.01,330.176,20.07
113.05,330.246,20.036
113.08,330.351,19.978
113.11,330.421,19.887
113.15,330.492,19.795
113.18,330.457,19.738
113.21,330.527,19.692
113.24,330.562,19.623
113.28,330.527,19.6
113.31,330.527,19.578
113.34,330.527,19.532
113.37,330.597,19.371
113.41,330.457,19.222
113.44,330.386,19.177
113.47,330.281,19.131
113.5,330.106,19.039
113.54,329.895,18.936
113.57,329.72,18.867
113.6,329.439,18.695
113.63,329.053,18.581
113.67,328.456,18.375
113.7,327.649,18.295
113.73,326.561,18.191
113.76,325.262,18.031
113.8,323.824,17.871
113.83,321.858,17.722
113.86,319.858,17.538
113.89,317.822,17.321
113.93,315.717,17.195
113.96,313.541,17.034
113.99,310.873,16.885
114.02,308.066,16.737
114.06,305.399,16.576
114.09,302.837,16.427
114.12,300.31,16.198
114.15,297.537,15.992
114.19,294.659,15.832
114.22,291.501,15.671
114.25,288.237,15.522
114.28,285.008,15.339
114.32,281.569,15.179
114.35,278.235,14.995
114.38,275.006,14.812
114.42,271.953,14.64
114.45,268.97,14.468
114.48,265.952,14.377
114.51,262.933,14.285
114.55,259.95,14.113
114.58,256.757,13.918
114.61,253.528,13.747
114.64,250.334,13.495
114.68,247.035,13.311
114.71,243.842,13.128
114.74,240.508,12.933
114.77,237.173,12.796
114.81,233.91,12.59
114.84,230.576,12.418
114.87,227.312,12.223
114.9,224.258,12.051
114.94,221.03,11.73
114.97,217.274,11.524
115.0,213.87,11.352
115.03,210.255,11.1
115.07,206.711,10.917
115.1,202.921,10.665
115.13,199.165,10.505
115.16,195.445,10.218
115.2,191.655,10.024
115.23,187.865,9.794
115.26,183.829,9.588
115.29,179.898,9.405
115.33,175.827,9.176
115.36,171.756,8.97
115.39,167.58,8.706
115.42,163.368,8.454
115.46,159.016,8.191
115.49,154.735,7.962
115.52,150.348,7.721
115.55,145.891,7.515
115.59,141.504,7.309
115.62,136.977,7.08
115.65,132.52,6.873
115.68,128.027,6.598
115.72,123.465,6.358
115.75,118.832,6.14
115.78,114.235,5.968
115.82,109.778,5.739
115.85,105.215,5.499
115.88,100.688,5.281
115.91,96.126,5.029
115.95,91.599,4.8
115.98,87.071,4.536
116.01,82.579,4.296
116.04,78.052,4.078
116.08,73.524,3.883
116.11,68.997,3.677
116.14,64.47,3.517
116.17,60.118,3.253
116.21,55.556,2.978
116.24,50.993,2.715
116.27,46.431,2.44
116.3,41.763,2.245
116.34,37.166,2.005
116.37,32.533,1.833
116.4,28.076,1.627
116.43,23.654,1.386
116.47,19.092,1.134
116.5,14.635,0.928
116.53,10.178,0.699
116.56,5.756,0.584
116.6,1.404,0.355
116.63,-3.088,0.229
116.66,-7.651,0.011
