Trigger_Date,2023/08/01
Trigger_Time,T 00:20:36.583 PDT
Samples_Per_Cycle,512
Microseconds_Per_Sample,32.540
Time (ms),Voltage (V),Current (A)
-16.66,11.441,0.321
-16.63,15.758,0.596
-16.6,19.934,0.939
-16.56,24.075,1.409
-16.53,28.497,1.799
-16.5,33.095,2.028
-16.47,37.692,2.154
-16.43,42.5,2.165
-16.4,47.063,2.051
-16.37,51.45,1.993
-16.34,55.801,1.936
-16.3,59.837,1.89
-16.27,63.557,1.89
-16.24,67.242,1.936
-16.2,71.033,1.936
-16.17,74.612,1.936
-16.14,78.262,1.947
-16.11,81.982,1.959
-16.07,85.703,1.993
-16.04,89.458,2.073
-16.01,93.178,2.119
-15.98,96.793,2.177
-15.94,100.443,2.222
-15.91,104.022,2.245
-15.88,107.637,2.257
-15.85,111.357,2.268
-15.81,114.902,2.257
-15.78,118.411,2.314
-15.75,122.096,2.36
-15.72,125.676,2.44
-15.68,129.466,2.486
-15.65,133.116,2.543
-15.62,136.801,2.52
-15.59,139.749,2.486
-15.55,144.627,2.795
-15.52,148.593,2.44
-15.49,151.927,2.761
-15.46,156.49,2.772
-15.42,160.034,2.749
-15.39,163.614,2.864
-15.36,167.369,2.864
-15.33,170.879,2.841
-15.29,174.213,2.91
-15.26,177.757,2.933
-15.23,181.232,2.956
-15.2,184.741,2.933
-15.16,188.145,2.967
-15.13,191.69,3.013
-15.1,195.2,3.024
-15.07,198.499,3.047
-15.03,201.762,3.116
-15.0,204.991,3.139
-14.97,208.185,3.15
-14.94,211.414,3.15
-14.9,214.537,3.139
-14.87,217.555,3.15
-14.84,220.573,3.196
-14.81,223.486,3.253
-14.77,226.294,3.276
-14.74,228.961,3.322
-14.71,231.734,3.334
-14.68,234.401,3.311
-14.64,236.858,3.311
-14.61,239.314,3.322
-14.58,241.806,3.356
-14.55,244.298,3.414
-14.51,246.965,3.517
-14.48,249.878,3.586
-14.45,252.756,3.62
-14.42,255.423,3.586
-14.38,257.809,3.586
-14.35,260.126,3.586
-14.32,262.231,3.574
-14.29,264.442,3.574
-14.25,266.548,3.62
-14.22,268.935,3.677
-14.19,271.216,3.723
-14.15,273.497,3.769
-14.12,275.813,3.803
-14.09,277.989,3.838
-14.06,280.235,3.792
-14.02,282.13,3.78
-13.99,284.096,3.803
-13.96,286.096,3.803
-13.93,288.026,3.815
-13.89,289.886,3.826
-13.86,291.536,3.849
-13.83,293.291,3.906
-13.8,295.01,3.883
-13.76,296.765,3.941
-13.73,298.555,3.872
-13.7,300.204,3.883
-13.67,301.714,3.849
-13.63,303.293,3.895
-13.6,304.521,3.872
-13.57,306.1,4.044
-13.54,306.732,3.815
-13.5,308.066,4.204
-13.47,310.242,3.964
-13.44,310.838,3.964
-13.41,312.593,3.975
-13.37,313.33,3.861
-13.34,314.629,4.044
-13.31,315.611,3.918
-13.28,316.418,3.987
-13.24,317.155,3.941
-13.21,317.857,3.998
-13.18,318.454,3.975
-13.15,319.156,3.929
-13.11,319.647,3.872
-13.08,320.209,3.906
-13.05,320.84,3.883
-13.02,321.262,3.975
-12.98,321.823,4.021
-12.95,322.455,4.044
-12.92,323.016,4.044
-12.89,323.613,4.009
-12.85,324.139,3.941
-12.82,324.561,3.941
-12.79,325.052,3.941
-12.76,325.543,3.929
-12.72,325.999,3.987
-12.69,326.385,4.009
-12.66,326.842,4.021
-12.63,327.263,4.021
-12.59,327.719,4.021
-12.56,328.105,3.975
-12.53,328.456,3.883
-12.5,328.21,3.792
-12.46,328.947,3.975
-12.43,329.404,3.815
-12.4,329.439,4.021
-12.37,329.93,3.964
-12.33,329.965,4.021
-12.3,330.421,4.032
-12.27,330.667,3.941
-12.24,330.913,3.895
-12.2,331.053,3.815
-12.17,331.158,3.826
-12.14,331.264,3.849
-12.1,331.439,3.895
-12.07,331.58,3.861
-12.04,331.65,3.895
-12.01,331.72,3.872
-11.97,331.79,3.883
-11.94,331.86,3.895
-11.91,331.966,3.849
-11.88,332.001,3.803
-11.84,332.071,3.757
-11.81,332.001,3.757
-11.78,332.106,3.723
-11.75,332.001,3.712
-11.71,331.931,3.78
-11.68,332.001,3.735
-11.65,331.966,3.666
-11.62,331.86,3.586
-11.58,331.72,3.563
-11.55,331.58,3.586
-11.52,331.369,3.597
-11.49,331.194,3.597
-11.45,330.843,3.597
-11.42,330.527,3.597
-11.39,330.0,3.574
-11.36,329.509,3.471
-11.32,328.596,3.345
-11.29,327.403,3.242
-11.26,325.648,3.093
-11.23,323.683,3.139
-11.19,322.279,3.082
-11.16,320.174,3.001
-11.13,318.138,3.059
-11.1,315.997,2.956
-11.06,313.576,2.921
-11.03,311.47,2.875
-11.0,309.294,2.772
-10.97,306.206,2.658
-10.93,303.574,2.715
-10.9,300.731,2.577
-10.87,297.502,2.577
-10.84,294.238,2.497
-10.8,290.799,2.497
-10.77,287.675,2.474
-10.74,284.412,2.383
-10.71,281.253,2.348
-10.67,278.094,2.28
-10.64,275.041,2.303
-10.61,272.023,2.314
-10.58,269.075,2.337
-10.54,266.127,2.268
-10.51,262.933,2.234
-10.48,259.74,2.188
-10.45,256.476,2.119
-10.41,253.247,2.051
-10.38,249.913,1.959
-10.35,246.614,1.936
-10.32,243.42,1.879
-10.28,240.086,1.867
-10.25,236.858,1.867
-10.22,233.699,1.833
-10.19,230.47,1.799
-10.15,227.171,1.741
-10.12,223.872,1.707
-10.09,220.468,1.661
-10.05,217.099,1.627
-10.02,213.66,1.558
-9.99,210.22,1.489
-9.96,206.606,1.443
-9.92,202.956,1.432
-9.89,199.341,1.375
-9.86,195.586,1.34
-9.83,191.866,1.26
-9.79,187.97,1.168
-9.76,184.039,1.123
-9.73,180.038,1.088
-9.7,176.038,1.042
-9.66,171.791,0.997
-9.63,167.615,0.962
-9.6,163.298,0.894
-9.57,159.052,0.836
-9.53,154.7,0.745
-9.5,150.383,0.664
-9.47,145.926,0.619
-9.44,141.504,0.607
-9.4,137.012,0.596
-9.37,132.52,0.573
-9.34,127.992,0.55
-9.31,123.43,0.515
-9.27,118.867,0.481
-9.24,114.375,0.435
-9.21,109.848,0.378
-9.18,105.321,0.321
-9.14,100.688,0.298
-9.11,96.091,0.309
-9.08,91.563,0.275
-9.05,87.036,0.218
-9.01,82.474,0.229
-8.98,77.982,0.218
-8.95,73.524,0.172
-8.92,69.032,0.149
-8.88,64.68,0.092
-8.85,60.223,0.046
-8.82,55.731,0.011
-8.79,51.064,-0.023
-8.75,46.536,0.011
-8.72,41.869,0.0
-8.69,37.201,0.034
-8.66,32.639,0.034
-8.62,28.181,0.0
-8.59,23.619,-0.057
-8.56,19.127,-0.034
-8.53,14.67,-0.069
-8.49,10.213,-0.046
-8.46,5.756,-0.046
-8.43,1.369,-0.034
-8.4,-2.983,-0.08
-8.36,-7.3,-0.172
-8.33,-11.511,-0.424
-8.3,-15.793,-0.687
-8.27,-20.004,-1.1
-8.23,-24.11,-1.478
-8.2,-28.603,-1.902
-8.17,-33.2,-1.97
-8.13,-37.903,-2.177
-8.1,-42.676,-2.051
-8.07,-47.519,-2.073
-8.04,-51.099,-1.707
-8.0,-55.415,-2.177
-7.97,-61.031,-1.89
-7.94,-63.031,-1.73
-7.91,-67.453,-2.211
-7.87,-71.559,-1.776
-7.84,-74.718,-1.959
-7.81,-78.683,-1.925
-7.78,-82.228,-1.902
-7.74,-85.738,-1.97
-7.71,-89.493,-2.073
-7.68,-93.178,-2.108
-7.65,-96.898,-2.199
-7.61,-100.443,-2.188
-7.58,-103.952,-2.245
-7.55,-107.637,-2.234
-7.52,-111.147,-2.222
-7.48,-114.656,-2.257
-7.45,-118.446,-2.291
-7.42,-121.956,-2.291
-7.39,-125.606,-2.394
-7.35,-129.396,-2.44
-7.32,-132.941,-2.44
-7.29,-136.38,-2.509
-7.26,-140.065,-2.577
-7.22,-144.136,-2.635
-7.19,-148.312,-2.623
-7.16,-152.278,-2.669
-7.13,-156.068,-2.726
-7.09,-159.789,-2.749
-7.06,-163.333,-2.784
-7.03,-166.878,-2.841
-7.0,-170.422,-2.875
-6.96,-174.037,-2.887
-6.93,-177.582,-2.875
-6.9,-181.056,-2.83
-6.87,-184.496,-2.841
-6.83,-187.83,-2.841
-6.8,-191.269,-2.956
-6.77,-194.217,-2.898
-6.74,-197.375,-3.116
-6.7,-201.447,-3.116
-6.67,-204.254,-2.967
-6.64,-207.729,-3.242
-6.61,-210.852,-2.956
-6.57,-213.519,-3.196
-6.54,-217.766,-3.208
-6.51,-220.082,-2.99
-6.48,-222.82,-3.311
-6.44,-226.048,-3.208
-6.41,-228.575,-3.265
-6.38,-231.418,-3.265
-6.35,-233.875,-3.23
-6.31,-236.261,-3.219
-6.28,-238.577,-3.288
-6.25,-241.139,-3.311
-6.22,-243.771,-3.368
-6.18,-246.368,-3.402
-6.15,-249.141,-3.54
-6.12,-252.089,-3.597
-6.08,-254.967,-3.597
-6.05,-257.599,-3.62
-6.02,-260.161,-3.586
-5.99,-262.337,-3.528
-5.95,-264.337,-3.551
-5.92,-266.513,-3.597
-5.89,-268.794,-3.62
-5.86,-271.005,-3.677
-5.82,-273.216,-3.746
-5.79,-275.497,-3.78
-5.76,-277.779,-3.769
-5.73,-279.884,-3.78
-5.69,-281.955,-3.757
-5.66,-283.92,-3.746
-5.63,-285.921,-3.757
-5.6,-287.991,-3.746
-5.56,-289.746,-3.792
-5.53,-291.431,-3.838
-5.5,-293.256,-3.883
-5.47,-295.116,-3.861
-5.43,-296.835,-3.849
-5.4,-298.555,-3.861
-5.37,-300.24,-3.838
-5.34,-301.714,-3.826
-5.3,-303.188,-3.849
-5.27,-304.521,-3.883
-5.24,-305.89,-3.906
-5.21,-307.259,-3.918
-5.17,-308.557,-3.906
-5.14,-309.75,-3.895
-5.11,-310.979,-3.906
-5.08,-312.277,-3.861
-5.04,-313.435,-3.838
-5.01,-314.488,-3.883
-4.98,-315.436,-3.906
-4.95,-316.243,-3.918
-4.91,-317.015,-3.918
-4.88,-317.717,-3.872
-4.85,-318.419,-3.861
-4.82,-319.086,-3.838
-4.78,-319.577,-3.838
-4.75,-320.139,-3.872
-4.72,-320.735,-3.883
-4.69,-321.262,-3.918
-4.65,-321.858,-3.975
-4.62,-322.455,-3.975
-4.59,-323.016,-3.929
-4.56,-323.473,-3.918
-4.52,-324.104,-3.918
-4.49,-324.561,-3.895
-4.46,-325.052,-3.861
-4.43,-325.543,-3.861
-4.39,-325.964,-3.883
-4.36,-326.385,-3.906
-4.33,-326.807,-3.918
-4.3,-327.158,-3.952
-4.26,-327.684,-3.975
-4.23,-328.0,-3.929
-4.2,-328.456,-3.918
-4.17,-328.21,-3.815
-4.13,-328.632,-3.987
-4.1,-329.544,-3.883
-4.07,-329.298,-3.826
-4.03,-329.649,-4.021
-4.0,-330.176,-3.872
-3.97,-330.246,-3.883
-3.94,-330.632,-3.849
-3.9,-330.772,-3.815
-3.87,-330.948,-3.803
-3.84,-331.123,-3.78
-3.81,-331.229,-3.792
-3.77,-331.334,-3.803
-3.74,-331.404,-3.815
-3.71,-331.58,-3.826
-3.68,-331.65,-3.792
-3.64,-331.72,-3.769
-3.61,-331.755,-3.746
-3.58,-331.79,-3.746
-3.55,-331.825,-3.712
-3.51,-331.895,-3.654
-3.48,-331.86,-3.689
-3.45,-331.895,-3.689
-3.42,-331.86,-3.689
-3.38,-331.825,-3.689
-3.35,-331.825,-3.643
-3.32,-331.755,-3.631
-3.29,-331.72,-3.574
-3.25,-331.615,-3.54
-3.22,-331.509,-3.517
-3.19,-331.334,-3.54
-3.16,-331.123,-3.528
-3.12,-330.807,-3.54
-3.09,-330.492,-3.505
-3.06,-330.07,-3.402
-3.03,-329.404,-3.311
-2.99,-328.596,-3.253
-2.96,-326.842,-3.036
-2.93,-325.227,-3.15
-2.9,-324.139,-3.047
-2.86,-321.858,-2.99
-2.83,-319.788,-3.036
-2.8,-317.752,-2.933
-2.77,-315.752,-2.933
-2.73,-313.576,-2.83
-2.7,-311.049,-2.795
-2.67,-308.627,-2.738
-2.64,-305.995,-2.681
-2.6,-303.293,-2.589
-2.57,-300.31,-2.543
-2.54,-297.186,-2.532
-2.51,-294.133,-2.486
-2.47,-290.904,-2.417
-2.44,-287.605,-2.394
-2.41,-284.377,-2.36
-2.38,-281.253,-2.303
-2.34,-278.059,-2.291
-2.31,-275.006,-2.245
-2.28,-271.988,-2.245
-2.25,-269.04,-2.245
-2.21,-266.022,-2.188
-2.18,-262.828,-2.177
-2.15,-259.634,-2.131
-2.12,-256.335,-2.062
-2.08,-253.001,-2.005
-2.05,-249.773,-1.947
-2.02,-246.474,-1.925
-1.98,-243.28,-1.902
-1.95,-240.051,-1.913
-1.92,-236.823,-1.902
-1.89,-233.664,-1.867
-1.85,-230.54,-1.787
-1.82,-227.277,-1.718
-1.79,-223.978,-1.661
-1.76,-220.538,-1.615
-1.72,-217.099,-1.558
-1.69,-213.625,-1.512
-1.66,-210.045,-1.478
-1.63,-206.29,-1.478
-1.59,-202.745,-1.42
-1.56,-199.06,-1.34
-1.53,-195.27,-1.317
-1.5,-191.55,-1.237
-1.46,-187.759,-1.18
-1.43,-183.899,-1.134
-1.4,-179.933,-1.077
-1.37,-175.897,-1.031
-1.33,-171.791,-1.008
-1.3,-167.58,-0.939
-1.27,-163.228,-0.894
-1.24,-158.911,-0.848
-1.2,-154.524,-0.756
-1.17,-150.137,-0.722
-1.14,-145.715,-0.676
-1.11,-141.293,-0.642
-1.07,-136.906,-0.619
-1.04,-132.449,-0.584
-1.01,-127.922,-0.55
-0.98,-123.395,-0.527
-0.94,-118.867,-0.493
-0.91,-114.41,-0.424
-0.88,-109.848,-0.367
-0.85,-105.286,-0.332
-0.81,-100.758,-0.263
-0.78,-96.126,-0.252
-0.75,-91.423,-0.286
-0.72,-86.896,-0.298
-0.68,-82.298,-0.241
-0.65,-77.876,-0.241
-0.62,-73.349,-0.172
-0.59,-68.857,-0.16
-0.55,-64.33,-0.126
-0.52,-59.978,-0.126
-0.49,-55.415,-0.057
-0.46,-50.958,-0.103
-0.42,-46.255,-0.046
-0.39,-41.904,-0.126
-0.36,-37.061,0.034
-0.33,-33.235,-0.263
-0.29,-28.603,0.195
-0.26,-22.566,-0.046
-0.23,-19.688,-0.206
-0.2,-15.021,0.206
-0.16,-9.581,-0.046
-0.13,-5.615,-0.149
-0.1,-1.439,-0.046
-0.07,3.229,-0.023
-0.03,7.265,0.034
0.0,11.336,0.321
0.03,15.758,0.607
0.07,19.899,0.916
0.1,23.9,1.398
0.13,28.357,1.821
0.16,32.954,1.982
0.2,37.587,2.142
0.23,42.465,2.154
0.26,46.992,2.073
0.29,51.309,2.051
0.33,55.661,2.016
0.36,59.697,1.993
0.39,63.593,1.959
0.42,67.313,1.913
0.46,71.103,1.902
0.49,74.753,1.913
0.52,78.403,1.936
0.55,82.053,1.97
0.59,85.738,2.016
0.62,89.493,2.039
0.65,93.108,2.096
0.68,96.828,2.177
0.72,100.548,2.222
0.75,104.128,2.234
0.78,107.707,2.291
0.81,111.357,2.291
0.85,114.867,2.314
0.88,118.552,2.325
0.91,122.237,2.383
0.94,125.922,2.394
0.98,129.572,2.497
1.01,133.397,2.509
1.04,137.082,2.52
1.07,140.556,2.451
1.11,143.925,2.543
1.14,148.909,2.738
1.17,152.454,2.486
1.2,156.033,2.875
1.24,160.385,2.749
1.27,163.719,2.795
1.3,167.439,2.852
1.33,171.054,2.83
1.37,174.564,2.807
1.4,178.003,2.852
1.43,181.512,2.852
1.46,184.987,2.91
1.5,188.391,2.921
1.53,191.69,2.967
1.56,194.989,3.001
1.59,198.288,3.001
1.63,201.622,3.001
1.66,204.886,3.013
1.69,208.115,3.024
1.72,211.308,3.093
1.76,214.432,3.15
1.79,217.485,3.208
1.82,220.433,3.23
1.85,223.311,3.265
1.89,226.154,3.299
1.92,228.821,3.322
1.95,231.664,3.311
1.98,234.261,3.299
2.02,236.823,3.265
2.05,239.034,3.265
2.08,241.595,3.368
2.12,244.228,3.356
2.15,246.86,3.448
2.18,250.018,3.551
2.21,253.072,3.54
2.25,255.493,3.517
2.28,257.845,3.528
2.31,260.231,3.494
2.34,262.302,3.437
2.38,264.548,3.471
2.41,266.653,3.482
2.44,269.04,3.608
2.47,271.707,3.666
2.51,273.883,3.723
2.54,276.305,3.769
2.57,278.41,3.677
2.6,280.27,3.735
2.64,282.271,3.769
2.67,284.131,3.792
2.7,286.061,3.838
2.73,287.991,3.838
2.77,289.781,3.815
2.8,291.431,3.815
2.83,293.256,3.872
2.86,295.01,3.895
2.9,296.87,3.918
2.93,298.555,3.929
2.96,300.38,3.964
2.99,301.889,3.883
3.03,303.468,3.838
3.06,304.662,3.838
3.09,306.171,3.941
3.12,306.697,3.757
3.16,308.487,4.113
3.19,310.277,3.757
3.22,310.979,3.964
3.25,312.698,3.929
3.29,313.541,3.929
3.32,314.804,3.998
3.35,315.752,3.895
3.38,316.559,3.964
3.42,317.296,3.918
3.45,317.998,3.895
3.48,318.559,3.826
3.51,319.191,3.826
3.55,319.682,3.826
3.58,320.209,3.861
3.61,320.84,3.929
3.64,321.332,3.964
3.68,321.893,4.009
3.71,322.56,3.975
3.74,323.051,3.906
3.77,323.613,3.906
3.81,324.174,3.861
3.84,324.561,3.872
3.87,325.052,3.883
3.9,325.508,3.918
3.94,325.999,3.941
3.97,326.385,3.975
4.0,326.807,4.044
4.03,327.263,4.021
4.07,327.544,3.998
4.1,328.035,3.998
4.13,328.351,3.872
4.17,328.21,3.838
4.2,328.983,3.941
4.23,329.439,3.769
4.26,329.509,3.861
4.3,329.825,3.849
4.33,330.035,3.895
4.36,330.457,3.849
4.39,330.667,3.803
4.43,330.878,3.792
4.46,330.983,3.792
4.49,331.123,3.861
4.52,331.264,3.872
4.56,331.404,3.861
4.59,331.58,3.826
4.62,331.685,3.792
4.65,331.79,3.735
4.69,331.825,3.746
4.72,331.895,3.723
4.75,331.86,3.757
4.78,331.931,3.792
4.82,332.001,3.769
4.85,332.036,3.735
4.88,332.036,3.735
4.91,332.036,3.735
4.95,332.036,3.677
4.98,331.966,3.631
5.01,331.895,3.574
5.04,331.825,3.574
5.08,331.755,3.563
5.11,331.544,3.563
5.14,331.404,3.586
5.17,331.194,3.563
5.21,330.948,3.54
5.24,330.667,3.471
5.27,330.106,3.391
5.3,329.474,3.322
5.34,328.596,3.265
5.37,327.158,3.139
5.4,325.192,3.173
5.43,323.964,3.242
5.47,322.279,3.036
5.5,320.174,3.059
5.53,318.349,2.944
5.56,315.857,2.864
5.6,313.681,2.83
5.63,311.33,2.738
5.66,308.733,2.715
5.69,306.206,2.681
5.73,303.398,2.623
5.76,300.415,2.577
5.79,297.256,2.555
5.82,294.063,2.532
5.86,290.904,2.474
5.89,287.711,2.406
5.92,284.482,2.337
5.95,281.253,2.314
5.99,278.059,2.325
6.02,275.041,2.348
6.05,272.058,2.314
6.08,269.04,2.303
6.12,266.057,2.291
6.15,263.074,2.211
6.18,259.88,2.142
6.22,256.616,2.051
6.25,253.282,1.982
6.28,249.913,1.959
6.31,246.614,1.959
6.35,243.385,1.936
6.38,240.121,1.913
6.41,236.963,1.867
6.44,233.734,1.821
6.48,230.47,1.787
6.51,227.277,1.718
6.54,223.907,1.673
6.57,220.573,1.638
6.61,217.134,1.615
6.64,213.695,1.592
6.67,210.185,1.524
6.7,206.5,1.501
6.74,202.991,1.443
6.77,199.306,1.363
6.8,195.621,1.272
6.83,191.83,1.203
6.87,187.935,1.157
6.9,184.039,1.111
6.93,180.038,1.042
6.96,175.932,1.02
7.0,171.791,0.985
7.03,167.58,0.939
7.06,163.263,0.882
7.09,159.016,0.813
7.13,154.63,0.745
7.16,150.172,0.722
7.19,145.786,0.699
7.22,141.293,0.664
7.26,136.871,0.619
7.29,132.449,0.584
7.32,127.992,0.55
7.35,123.5,0.504
7.39,119.008,0.435
7.42,114.41,0.389
7.45,109.848,0.367
7.48,105.286,0.344
7.52,100.758,0.321
7.55,96.056,0.309
7.58,91.528,0.309
7.61,86.966,0.286
7.65,82.404,0.252
7.68,78.052,0.183
7.71,73.489,0.126
7.74,68.962,0.115
7.78,64.505,0.08
7.81,59.978,0.08
7.84,55.45,0.046
7.87,50.888,0.046
7.91,46.361,0.069
7.94,41.763,0.046
7.97,37.236,0.023
8.0,32.744,-0.034
8.04,28.287,-0.057
8.07,23.689,-0.069
8.1,19.092,-0.034
8.13,14.6,-0.034
8.17,10.213,0.0
8.2,5.756,-0.034
8.23,1.299,-0.023
8.27,-3.053,-0.092
8.3,-7.37,-0.195
8.33,-11.617,-0.435
8.36,-15.898,-0.71
8.4,-20.145,-1.111
8.43,-24.286,-1.501
8.46,-28.883,-1.89
8.49,-33.446,-1.925
8.53,-38.148,-2.073
8.56,-42.746,-1.959
8.59,-47.343,-2.096
8.62,-51.169,-1.787
8.66,-55.17,-2.199
8.69,-60.96,-2.051
8.72,-63.347,-1.661
8.75,-67.348,-2.188
8.79,-71.77,-1.776
8.82,-74.928,-1.833
8.85,-78.613,-1.89
8.88,-82.333,-1.925
8.92,-85.773,-1.993
8.95,-89.528,-2.108
8.98,-93.178,-2.131
9.01,-96.863,-2.188
9.05,-100.407,-2.177
9.08,-103.952,-2.222
9.11,-107.777,-2.222
9.14,-111.357,-2.211
9.18,-114.867,-2.257
9.21,-118.411,-2.303
9.24,-121.991,-2.314
9.27,-125.711,-2.36
9.31,-129.396,-2.36
9.34,-132.976,-2.371
9.37,-136.38,-2.429
9.4,-140.135,-2.543
9.44,-144.276,-2.566
9.47,-148.312,-2.612
9.5,-152.208,-2.704
9.53,-156.068,-2.761
9.57,-159.894,-2.749
9.6,-163.579,-2.738
9.63,-167.229,-2.738
9.66,-170.738,-2.749
9.7,-174.178,-2.772
9.73,-177.722,-2.772
9.76,-181.126,-2.795
9.79,-184.496,-2.841
9.83,-187.83,-2.898
9.86,-191.444,-2.944
9.89,-194.392,-2.852
9.92,-197.832,-3.07
9.96,-201.657,-3.001
9.99,-204.254,-2.956
10.02,-207.869,-3.162
10.05,-210.852,-2.921
10.09,-213.554,-3.15
10.12,-217.801,-3.219
10.15,-220.082,-3.013
10.19,-222.96,-3.334
10.22,-226.083,-3.219
10.25,-228.61,-3.265
10.28,-231.348,-3.253
10.32,-233.91,-3.253
10.35,-236.366,-3.23
10.38,-238.647,-3.265
10.41,-241.174,-3.288
10.45,-243.736,-3.345
10.48,-246.368,-3.322
10.51,-248.965,-3.414
10.54,-251.984,-3.482
10.58,-254.826,-3.505
10.61,-257.599,-3.54
10.64,-260.091,-3.505
10.67,-262.161,-3.494
10.71,-264.197,-3.54
10.74,-266.408,-3.586
10.77,-268.794,-3.586
10.8,-271.111,-3.608
10.84,-273.392,-3.631
10.87,-275.638,-3.654
10.9,-277.849,-3.666
10.93,-279.884,-3.689
10.97,-281.885,-3.712
11.0,-283.815,-3.757
11.03,-285.851,-3.769
11.06,-287.781,-3.792
11.1,-289.641,-3.826
11.13,-291.396,-3.838
11.16,-293.185,-3.849
11.19,-295.045,-3.792
11.23,-296.765,-3.78
11.26,-298.415,-3.792
11.29,-300.134,-3.815
11.32,-301.608,-3.803
11.36,-303.047,-3.826
11.39,-304.556,-3.815
11.42,-305.89,-3.803
11.45,-307.153,-3.815
11.49,-308.382,-3.815
11.52,-309.645,-3.815
11.55,-310.909,-3.792
11.58,-312.067,-3.803
11.62,-313.295,-3.826
11.65,-314.383,-3.861
11.68,-315.506,-3.883
11.71,-316.348,-3.872
11.75,-317.12,-3.849
11.78,-317.857,-3.803
11.81,-318.384,-3.78
11.84,-319.016,-3.826
11.88,-319.612,-3.815
11.91,-320.103,-3.826
11.94,-320.735,-3.849
11.97,-321.297,-3.861
12.01,-321.858,-3.872
12.04,-322.42,-3.861
12.07,-322.946,-3.861
12.1,-323.438,-3.861
12.14,-323.999,-3.883
12.17,-324.525,-3.861
12.2,-324.982,-3.838
12.24,-325.403,-3.895
12.27,-325.964,-3.929
12.3,-326.35,-3.918
12.33,-326.877,-3.872
12.37,-327.263,-3.861
12.4,-327.684,-3.838
12.43,-328.0,-3.815
12.46,-328.421,-3.803
12.5,-328.21,-3.712
12.53,-328.561,-3.906
12.56,-329.544,-3.826
12.59,-329.333,-3.769
12.63,-329.544,-3.941
12.66,-330.106,-3.861
12.69,-330.246,-3.826
12.72,-330.632,-3.803
12.76,-330.702,-3.78
12.79,-330.913,-3.803
12.82,-331.088,-3.78
12.85,-331.229,-3.792
12.89,-331.299,-3.78
12.92,-331.404,-3.769
12.95,-331.474,-3.769
12.98,-331.615,-3.746
13.02,-331.685,-3.723
13.05,-331.72,-3.735
13.08,-331.79,-3.677
13.11,-331.79,-3.689
13.15,-331.825,-3.712
13.18,-331.86,-3.712
13.21,-331.895,-3.666
13.24,-331.86,-3.654
13.28,-331.825,-3.631
13.31,-331.825,-3.597
13.34,-331.755,-3.574
13.37,-331.685,-3.574
13.41,-331.58,-3.586
13.44,-331.439,-3.586
13.47,-331.334,-3.54
13.5,-331.158,-3.494
13.54,-330.878,-3.482
13.57,-330.527,-3.414
13.6,-329.965,-3.379
13.63,-329.369,-3.322
13.67,-328.456,-3.127
13.7,-326.666,-3.013
13.73,-325.613,-3.127
13.76,-324.315,-2.864
13.8,-321.893,-2.841
13.83,-319.682,-2.898
13.86,-317.682,-2.921
13.89,-315.997,-2.864
13.93,-313.611,-2.726
13.96,-310.944,-2.715
13.99,-308.276,-2.692
14.02,-305.75,-2.635
14.06,-303.082,-2.555
14.09,-300.169,-2.532
14.12,-297.256,-2.486
14.15,-294.133,-2.36
14.19,-290.904,-2.325
14.22,-287.675,-2.314
14.25,-284.412,-2.28
14.29,-281.183,-2.257
14.32,-277.954,-2.211
14.35,-274.831,-2.199
14.38,-271.848,-2.211
14.42,-268.9,-2.222
14.45,-265.916,-2.199
14.48,-262.863,-2.142
14.51,-259.705,-2.085
14.55,-256.476,-1.993
14.58,-253.177,-1.947
14.61,-249.878,-1.913
14.64,-246.579,-1.879
14.68,-243.315,-1.867
14.71,-240.086,-1.833
14.74,-236.823,-1.821
14.77,-233.734,-1.764
14.81,-230.47,-1.718
14.84,-227.242,-1.695
14.87,-223.943,-1.615
14.9,-220.573,-1.558
14.94,-217.169,-1.512
14.97,-213.625,-1.489
15.0,-210.01,-1.489
15.03,-206.43,-1.443
15.07,-202.745,-1.375
15.1,-199.06,-1.306
15.13,-195.375,-1.237
15.16,-191.69,-1.134
15.2,-187.794,-1.077
15.23,-183.899,-1.031
15.26,-179.828,-1.02
15.29,-175.757,-0.997
15.33,-171.581,-0.951
15.36,-167.439,-0.928
15.39,-163.158,-0.848
15.42,-158.806,-0.825
15.46,-154.524,-0.779
15.49,-150.172,-0.699
15.52,-145.786,-0.653
15.55,-141.328,-0.619
15.59,-136.836,-0.584
15.62,-132.239,-0.584
15.65,-127.782,-0.527
15.68,-123.289,-0.458
15.72,-118.657,-0.424
15.75,-114.2,-0.367
15.78,-109.743,-0.298
15.81,-105.075,-0.252
15.85,-100.478,-0.229
15.88,-95.95,-0.206
15.91,-91.283,-0.218
15.94,-86.72,-0.241
15.98,-82.158,-0.218
16.01,-77.806,-0.218
16.04,-73.244,-0.16
16.07,-68.857,-0.137
16.11,-64.294,-0.069
16.14,-59.908,-0.092
16.17,-55.205,-0.057
16.2,-50.818,-0.137
16.24,-46.185,-0.023
16.27,-41.728,-0.103
16.3,-36.955,0.046
16.34,-33.165,-0.263
16.37,-28.532,0.183
16.4,-22.601,-0.034
16.43,-19.548,-0.252
16.47,-14.951,0.103
16.5,-9.686,-0.069
16.53,-5.615,-0.137
16.56,-1.509,-0.046
16.6,3.159,0.011
16.63,7.265,0.069
16.66,11.406,0.332
16.69,15.793,0.619
16.73,20.004,0.951
16.76,24.005,1.409
16.79,28.532,1.821
16.82,33.165,1.97
16.86,37.762,2.073
16.89,42.57,2.085
16.92,46.992,2.062
16.95,51.379,2.028
16.99,55.661,1.982
17.02,59.697,1.936
17.05,63.593,1.925
17.08,67.418,1.89
17.12,71.033,1.89
17.15,74.683,1.913
17.18,78.297,1.947
17.21,81.982,1.982
17.25,85.738,2.028
17.28,89.528,2.051
17.31,93.213,2.096
17.34,96.863,2.142
17.38,100.443,2.165
17.41,104.128,2.177
17.44,107.672,2.177
17.47,111.182,2.222
17.51,114.691,2.303
17.54,118.341,2.337
17.57,122.061,2.406
17.6,125.781,2.429
17.64,129.466,2.474
17.67,133.292,2.44
17.7,136.836,2.486
17.73,140.486,2.451
17.77,143.82,2.577
17.8,148.769,2.818
17.83,152.313,2.532
17.86,156.068,2.841
17.9,160.315,2.715
17.93,163.544,2.761
17.96,167.264,2.795
17.99,170.984,2.795
18.03,174.564,2.749
18.06,178.003,2.795
18.09,181.477,2.807
18.12,184.917,2.887
18.16,188.391,2.875
18.19,191.655,2.944
18.22,195.059,2.978
18.25,198.393,2.967
18.29,201.727,2.956
18.32,204.956,2.956
18.35,208.044,3.013
18.39,211.168,3.104
18.42,214.362,3.139
18.45,217.345,3.173
18.48,220.398,3.208
18.52,223.416,3.196
18.55,226.329,3.208
18.58,229.172,3.242
18.61,231.944,3.253
18.65,234.576,3.219
18.68,236.963,3.242
18.71,239.279,3.265
18.74,241.701,3.322
18.78,244.263,3.391
18.81,246.93,3.448
18.84,249.843,3.528
18.87,252.721,3.551
18.91,255.318,3.494
18.94,257.669,3.505
18.97,260.056,3.494
19.0,262.267,3.494
19.04,264.337,3.563
19.07,266.689,3.608
19.1,269.075,3.643
19.13,271.356,3.712
19.17,273.778,3.666
19.2,275.989,3.654
19.23,278.2,3.654
19.26,280.27,3.654
19.3,282.201,3.7
19.33,284.096,3.723
19.36,285.991,3.735
19.39,287.816,3.769
19.43,289.641,3.803
19.46,291.431,3.815
19.49,293.221,3.792
19.52,294.87,3.803
19.56,296.73,3.826
19.59,298.344,3.849
19.62,300.099,3.849
19.65,301.643,3.849
19.69,303.223,3.826
19.72,304.591,3.849
19.75,306.171,3.803
19.78,306.487,3.677
19.82,308.487,4.101
19.85,310.031,3.757
19.88,310.803,4.078
19.91,312.523,3.929
19.95,313.33,3.964
19.98,314.664,3.987
20.01,315.471,3.964
20.04,316.348,3.975
20.08,317.085,3.872
20.11,317.787,3.826
20.14,318.384,3.815
20.17,319.051,3.826
20.21,319.542,3.838
20.24,320.174,3.872
20.27,320.805,3.838
20.3,321.332,3.872
20.34,321.858,3.918
20.37,322.455,3.929
20.4,323.051,3.861
20.44,323.753,3.906
20.47,324.35,3.826
20.5,324.49,3.838
20.53,325.262,3.918
20.57,325.613,3.838
20.6,326.07,3.941
20.63,326.526,3.883
20.66,326.982,3.929
20.7,327.473,3.838
20.73,327.684,3.883
20.76,328.175,3.883
20.79,328.351,3.872
20.83,328.316,3.861
20.86,328.947,3.964
20.89,329.509,3.849
20.92,329.579,3.895
20.96,330.0,3.861
20.99,330.176,3.803
21.02,330.527,3.792
21.05,330.737,3.735
21.09,330.878,3.78
21.12,331.123,3.769
21.15,331.229,3.769
21.18,331.369,3.769
21.22,331.474,3.803
21.25,331.615,3.769
21.28,331.72,3.757
21.31,331.825,3.712
21.35,331.825,3.654
21.38,331.86,3.677
21.41,331.931,3.7
21.44,331.931,3.7
21.48,332.036,3.7
21.51,332.036,3.666
21.54,332.036,3.654
21.57,332.036,3.654
21.61,332.001,3.631
21.64,331.931,3.597
21.67,331.86,3.574
21.7,331.79,3.574
21.74,331.72,3.563
21.77,331.544,3.551
21.8,331.439,3.54
21.83,331.194,3.528
21.87,330.913,3.517
21.9,330.527,3.494
21.93,330.035,3.46
21.96,329.404,3.391
22.0,328.526,3.322
22.03,327.298,3.208
22.06,325.333,3.127
22.09,323.859,3.15
22.13,322.244,3.024
22.16,320.209,3.013
22.19,318.384,2.967
22.22,316.138,2.818
22.26,313.646,2.818
22.29,311.259,2.738
22.32,308.627,2.692
22.35,306.065,2.681
22.39,303.398,2.612
22.42,300.485,2.577
22.45,297.467,2.509
22.49,294.168,2.451
22.52,291.045,2.417
22.55,287.851,2.325
22.58,284.517,2.303
22.62,281.323,2.257
22.65,277.989,2.257
22.68,274.901,2.268
22.71,271.953,2.268
22.75,268.935,2.303
22.78,266.127,2.257
22.81,263.109,2.154
22.84,259.915,2.085
22.88,256.721,2.039
22.91,253.387,2.005
22.94,250.089,1.959
22.97,246.79,1.913
23.01,243.526,1.867
23.04,240.227,1.821
23.07,236.893,1.833
23.1,233.734,1.799
23.14,230.47,1.741
23.17,227.242,1.673
23.2,223.943,1.627
23.23,220.609,1.569
23.27,217.239,1.535
23.3,213.73,1.489
23.33,210.185,1.478
23.36,206.641,1.432
23.4,202.991,1.363
23.43,199.306,1.283
23.46,195.586,1.226
23.49,191.725,1.191
23.53,187.83,1.18
23.56,183.934,1.157
23.59,179.933,1.1
23.62,175.932,1.008
23.66,171.826,0.928
23.69,167.615,0.905
23.72,163.368,0.848
23.75,159.192,0.756
23.79,154.7,0.722
23.82,150.383,0.687
23.85,145.961,0.642
23.88,141.504,0.619
23.92,137.012,0.596
23.95,132.484,0.596
23.98,127.957,0.561
24.01,123.465,0.458
24.05,118.867,0.389
24.08,114.34,0.367
24.11,109.778,0.344
24.14,105.145,0.344
24.18,100.548,0.367
24.21,96.021,0.378
24.24,91.493,0.355
24.27,87.001,0.309
24.31,82.544,0.252
24.34,78.157,0.172
24.37,73.7,0.092
24.4,69.173,0.057
24.44,64.68,0.034
24.47,60.048,0.046
24.5,55.415,0.069
24.54,50.818,0.069
24.57,46.255,0.08
24.6,41.728,0.034
24.63,37.131,0.023
24.67,32.674,-0.023
24.7,28.217,-0.057
24.73,23.654,-0.057
24.76,19.127,-0.034
24.8,14.635,0.0
24.83,10.248,-0.023
24.86,5.826,0.0
24.89,1.369,-0.069
24.93,-2.983,-0.08
24.96,-7.3,-0.229
24.99,-11.546,-0.424
25.02,-15.863,-0.756
25.06,-20.074,-1.054
25.09,-24.216,-1.581
25.12,-28.708,-1.833
25.15,-33.411,-2.073
25.19,-37.938,-1.936
25.22,-41.869,-2.085
25.25,-48.256,-2.257
25.28,-51.59,-1.684
25.32,-55.275,-2.268
25.35,-60.469,-1.947
25.38,-63.733,-1.844
25.41,-67.558,-1.947
25.45,-71.349,-1.89
25.48,-74.718,-1.902
25.51,-78.473,-1.993
25.54,-82.193,-1.97
25.58,-85.773,-2.028
25.61,-89.458,-2.062
25.64,-93.143,-2.142
25.67,-96.933,-2.154
25.71,-100.618,-2.142
25.74,-104.233,-2.142
25.77,-107.742,-2.154
25.8,-111.217,-2.188
25.84,-114.796,-2.245
25.87,-118.411,-2.245
25.9,-121.921,-2.303
25.93,-125.641,-2.325
25.97,-129.361,-2.36
26.0,-133.046,-2.36
26.03,-136.485,-2.417
26.06,-140.205,-2.509
26.1,-144.241,-2.543
26.13,-148.172,-2.623
26.16,-152.208,-2.704
26.19,-156.068,-2.749
26.23,-159.718,-2.738
26.26,-163.403,-2.749
26.29,-167.018,-2.738
26.32,-170.528,-2.772
26.36,-174.037,-2.784
26.39,-177.547,-2.807
26.42,-181.021,-2.807
26.45,-184.531,-2.841
26.49,-187.9,-2.864
26.52,-191.304,-2.978
26.55,-194.217,-2.852
26.59,-197.726,-3.139
26.62,-201.552,-2.933
26.65,-203.798,-2.944
26.68,-208.255,-3.253
26.72,-211.378,-2.852
26.75,-213.905,-3.162
26.78,-217.485,-3.139
26.81,-220.222,-3.104
26.85,-223.065,-3.139
26.88,-225.873,-3.139
26.91,-228.61,-3.116
26.94,-231.277,-3.15
26.98,-233.875,-3.162
27.01,-236.436,-3.162
27.04,-238.753,-3.185
27.07,-241.174,-3.265
27.11,-243.736,-3.356
27.14,-246.474,-3.402
27.17,-249.281,-3.425
27.2,-252.194,-3.494
27.24,-255.072,-3.505
27.27,-257.774,-3.528
27.3,-260.196,-3.482
27.33,-262.231,-3.494
27.37,-264.302,-3.517
27.4,-266.408,-3.551
27.43,-268.759,-3.563
27.46,-271.111,-3.586
27.5,-273.357,-3.608
27.53,-275.603,-3.631
27.56,-277.779,-3.62
27.59,-279.884,-3.631
27.63,-281.85,-3.654
27.66,-283.92,-3.712
27.69,-285.921,-3.712
27.72,-287.921,-3.735
27.76,-289.816,-3.735
27.79,-291.606,-3.712
27.82,-293.326,-3.757
27.85,-295.045,-3.757
27.89,-296.765,-3.746
27.92,-298.415,-3.769
27.95,-300.064,-3.769
27.98,-301.608,-3.78
28.02,-303.082,-3.815
28.05,-304.486,-3.815
28.08,-305.82,-3.838
28.11,-307.153,-3.826
28.15,-308.487,-3.826
28.18,-309.715,-3.815
28.21,-310.944,-3.792
28.24,-312.137,-3.826
28.28,-313.33,-3.815
28.31,-314.453,-3.838
28.34,-315.471,-3.849
28.37,-316.313,-3.826
28.41,-317.05,-3.803
28.44,-317.717,-3.803
28.47,-318.419,-3.792
28.5,-319.016,-3.769
28.54,-319.647,-3.792
28.57,-320.174,-3.769
28.6,-320.805,-3.815
28.64,-321.332,-3.849
28.67,-321.999,-3.838
28.7,-322.525,-3.815
28.73,-323.016,-3.815
28.77,-323.578,-3.792
28.8,-324.139,-3.803
28.83,-324.561,-3.815
28.86,-325.052,-3.838
28.9,-325.508,-3.849
28.93,-325.999,-3.883
28.96,-326.385,-3.883
28.99,-326.947,-3.895
29.03,-327.158,-3.769
29.06,-327.368,-3.895
29.09,-328.175,-3.849
29.12,-328.386,-3.792
29.16,-328.246,-3.757
29.19,-328.596,-3.918
29.22,-329.404,-3.849
29.25,-329.544,-3.826
29.29,-329.895,-3.838
29.32,-330.07,-3.803
29.35,-330.457,-3.815
29.38,-330.597,-3.769
29.42,-330.807,-3.78
29.45,-330.948,-3.746
29.48,-331.088,-3.769
29.51,-331.194,-3.78
29.55,-331.369,-3.803
29.58,-331.474,-3.746
29.61,-331.58,-3.746
29.64,-331.685,-3.723
29.68,-331.755,-3.689
29.71,-331.755,-3.677
29.74,-331.825,-3.677
29.77,-331.86,-3.689
29.81,-331.931,-3.712
29.84,-331.79,-3.78
29.87,-331.86,-3.792
29.9,-331.931,-3.723
29.94,-331.895,-3.689
29.97,-331.86,-3.631
30.0,-331.895,-3.551
30.03,-331.755,-3.494
30.07,-331.65,-3.494
30.1,-331.509,-3.482
30.13,-331.334,-3.494
30.16,-331.088,-3.494
30.2,-330.913,-3.482
30.23,-330.527,-3.425
30.26,-330.07,-3.368
30.29,-329.474,-3.288
30.33,-328.526,-3.185
30.36,-326.736,-3.013
30.39,-325.543,-3.127
30.42,-324.385,-2.864
30.46,-321.928,-2.841
30.49,-319.963,-2.887
30.52,-317.787,-2.864
30.56,-315.927,-2.864
30.59,-313.681,-2.738
30.62,-311.049,-2.715
30.65,-308.522,-2.692
30.69,-305.89,-2.623
30.72,-303.082,-2.6
30.75,-300.204,-2.566
30.78,-297.116,-2.509
30.82,-294.098,-2.451
30.85,-290.904,-2.371
30.88,-287.675,-2.314
30.91,-284.482,-2.28
30.95,-281.288,-2.234
30.98,-278.059,-2.222
31.01,-275.006,-2.188
31.04,-271.988,-2.177
31.08,-268.97,-2.165
31.11,-266.022,-2.142
31.14,-262.863,-2.096
31.17,-259.669,-2.039
31.21,-256.441,-1.97
31.24,-253.072,-1.936
31.27,-249.738,-1.936
31.3,-246.509,-1.925
31.34,-243.245,-1.89
31.37,-240.051,-1.867
31.4,-236.893,-1.81
31.43,-233.699,-1.776
31.47,-230.54,-1.741
31.5,-227.277,-1.707
31.53,-223.978,-1.638
31.56,-220.644,-1.558
31.6,-217.169,-1.535
31.63,-213.625,-1.501
31.66,-210.08,-1.478
31.69,-206.535,-1.398
31.73,-202.921,-1.294
31.76,-199.236,-1.203
31.79,-195.48,-1.146
31.82,-191.655,-1.123
31.86,-187.759,-1.123
31.89,-183.864,-1.1
31.92,-179.793,-1.054
31.95,-175.722,-1.042
31.99,-171.651,-0.997
32.02,-167.474,-0.939
32.05,-163.193,-0.905
32.08,-158.946,-0.79
32.12,-154.594,-0.722
32.15,-150.208,-0.653
32.18,-145.856,-0.607
32.21,-141.328,-0.584
32.25,-136.871,-0.584
32.28,-132.379,-0.573
32.31,-127.782,-0.55
32.34,-123.325,-0.458
32.38,-118.622,-0.458
32.41,-114.095,-0.447
32.44,-109.673,-0.367
32.47,-105.04,-0.321
32.51,-100.443,-0.309
32.54,-95.95,-0.252
32.57,-91.458,-0.195
32.61,-86.861,-0.149
32.64,-82.298,-0.172
32.67,-77.841,-0.16
32.7,-73.314,-0.183
32.74,-68.822,-0.149
32.77,-64.33,-0.16
32.8,-59.872,-0.115
32.83,-55.45,-0.126
32.87,-50.853,-0.069
32.9,-46.291,-0.149
32.93,-41.763,-0.034
32.96,-37.306,-0.172
33.0,-33.621,0.0
33.03,-27.304,0.241
33.06,-23.409,-0.298
33.09,-19.653,0.092
33.13,-14.108,0.011
33.16,-9.686,-0.137
33.19,-5.826,-0.115
33.22,-1.228,-0.023
33.26,3.123,-0.103
33.29,7.124,0.08
33.32,11.476,0.321
33.35,15.758,0.607
33.39,19.899,0.939
33.42,24.146,1.42
33.45,28.603,1.753
33.48,33.165,1.982
33.52,37.798,2.131
33.55,42.535,2.165
33.58,47.028,2.096
33.61,51.379,2.119
33.65,55.731,2.073
33.68,59.908,2.005
33.71,63.733,1.925
33.74,67.523,1.902
33.78,71.278,1.89
33.81,74.858,1.902
33.84,78.438,1.97
33.87,82.123,2.028
33.91,85.773,2.062
33.94,89.528,2.096
33.97,93.283,2.119
34.0,97.003,2.096
34.04,100.618,2.119
34.07,104.268,2.154
34.1,107.918,2.177
34.13,111.392,2.199
34.17,114.972,2.245
34.2,118.517,2.268
34.23,122.096,2.383
34.26,125.746,2.429
34.3,129.536,2.497
34.33,133.221,2.463
34.36,137.012,2.543
34.39,140.065,2.417
34.43,144.382,2.795
34.46,149.12,2.566
34.49,152.243,2.646
34.52,156.56,2.83
34.56,160.35,2.715
34.59,163.754,2.807
34.62,167.439,2.784
34.66,171.159,2.749
34.69,174.564,2.738
34.72,177.968,2.784
34.75,181.442,2.818
34.79,184.917,2.864
34.82,188.181,2.944
34.85,191.655,3.024
34.88,195.024,3.047
34.92,198.463,3.047
34.95,201.833,3.047
34.98,205.167,3.047
35.01,208.325,3.036
35.05,211.484,3.093
35.08,214.572,3.139
35.11,217.625,3.173
35.14,220.538,3.219
35.18,223.486,3.253
35.21,226.469,3.242
35.24,229.207,3.23
35.27,231.944,3.23
35.31,234.506,3.219
35.34,236.787,3.23
35.37,239.174,3.253
35.4,241.631,3.276
35.44,244.228,3.379
35.47,246.965,3.494
35.5,250.018,3.551
35.53,253.036,3.54
35.57,255.493,3.505
35.6,257.845,3.54
35.63,260.161,3.551
35.66,262.196,3.586
35.7,264.513,3.654
35.73,266.794,3.608
35.76,269.04,3.666
35.79,271.426,3.666
35.83,273.743,3.643
35.86,276.024,3.654
35.89,278.165,3.7
35.92,280.165,3.735
35.96,282.166,3.746
35.99,284.096,3.792
36.02,285.991,3.826
36.05,287.956,3.826
36.09,289.886,3.803
36.12,291.676,3.792
36.15,293.501,3.757
36.18,295.116,3.803
36.22,296.765,3.826
36.25,298.45,3.895
36.28,300.24,3.872
36.31,301.714,3.895
36.35,303.188,3.906
36.38,304.626,3.975
36.41,306.171,3.826
36.44,306.592,3.735
36.48,308.803,4.009
36.51,309.926,3.654
36.54,311.014,4.032
36.57,312.593,3.838
36.61,313.33,3.975
36.64,314.699,3.929
36.67,315.541,3.929
36.71,316.454,3.918
36.74,317.191,3.838
36.77,317.822,3.849
36.8,318.349,3.849
36.84,318.91,3.906
36.87,319.542,3.941
36.9,320.174,3.906
36.93,320.805,3.918
36.97,321.437,3.861
37.0,321.928,3.861
37.03,322.56,3.849
37.06,323.016,3.838
37.1,323.578,3.883
37.13,324.139,3.895
37.16,324.561,3.929
37.19,325.122,3.941
37.23,325.543,3.975
37.26,326.07,3.975
37.29,326.491,3.941
37.32,327.017,3.895
37.36,327.368,3.861
37.39,327.789,3.849
37.42,328.07,3.895
37.45,328.456,3.883
37.49,328.246,3.815
37.52,328.947,3.975
37.55,329.474,3.849
37.58,329.579,3.906
37.62,330.0,3.838
37.65,330.176,3.803
37.68,330.527,3.803
37.71,330.702,3.78
37.75,330.878,3.792
37.78,331.018,3.826
37.81,331.194,3.815
37.84,331.334,3.815
37.88,331.509,3.826
37.91,331.615,3.803
37.94,331.685,3.757
37.97,331.825,3.746
38.01,331.86,3.757
38.04,331.895,3.792
38.07,331.966,3.78
38.1,332.001,3.746
38.14,332.036,3.735
38.17,332.036,3.7
38.2,332.141,3.677
38.23,332.036,3.643
38.27,332.036,3.62
38.3,331.966,3.608
38.33,331.931,3.597
38.36,331.825,3.608
38.4,331.72,3.608
38.43,331.615,3.597
38.46,331.439,3.574
38.49,331.229,3.517
38.53,330.913,3.482
38.56,330.597,3.448
38.59,330.07,3.368
38.62,329.509,3.322
38.66,328.491,3.265
38.69,327.298,3.219
38.72,325.473,3.093
38.76,323.683,3.116
38.79,322.244,3.07
38.82,320.209,2.967
38.85,318.243,2.944
38.89,316.068,2.818
38.92,313.576,2.784
38.95,311.154,2.761
38.98,308.627,2.761
39.02,306.03,2.704
39.05,303.328,2.612
39.08,300.45,2.555
39.11,297.432,2.497
39.15,294.273,2.417
39.18,291.08,2.337
39.21,287.781,2.291
39.24,284.482,2.268
39.28,281.183,2.28
39.31,277.919,2.291
39.34,274.831,2.291
39.37,271.848,2.314
39.41,268.97,2.303
39.44,266.092,2.245
39.47,262.968,2.177
39.5,259.95,2.085
39.54,256.616,2.016
39.57,253.282,2.005
39.6,249.913,1.993
39.63,246.614,1.959
39.67,243.35,1.925
39.7,240.051,1.913
39.73,236.893,1.856
39.76,233.734,1.776
39.8,230.47,1.741
39.83,227.242,1.707
39.86,223.802,1.718
39.89,220.433,1.73
39.93,217.064,1.673
39.96,213.695,1.592
39.99,210.15,1.489
40.02,206.606,1.443
40.06,202.991,1.375
40.09,199.341,1.283
40.12,195.551,1.237
40.15,191.69,1.203
40.19,187.865,1.157
40.22,183.934,1.134
40.25,179.898,1.1
40.28,175.862,1.042
40.32,171.721,0.985
40.35,167.545,0.905
40.38,163.228,0.825
40.41,158.806,0.733
40.45,154.384,0.71
40.48,150.032,0.676
40.51,145.645,0.664
40.54,141.328,0.653
40.58,136.871,0.619
40.61,132.414,0.596
40.64,127.992,0.515
40.67,123.465,0.435
40.71,118.903,0.389
40.74,114.375,0.344
40.77,109.778,0.321
40.81,105.145,0.309
40.84,100.513,0.241
40.87,95.88,0.241
40.9,91.353,0.252
40.94,86.826,0.229
40.97,82.368,0.172
41.0,77.946,0.137
41.03,73.454,0.126
41.07,68.892,0.137
41.1,64.54,0.115
41.13,60.048,0.092
41.16,55.521,0.08
41.2,50.993,0.069
41.23,46.431,0.069
41.26,42.009,0.023
41.29,37.376,-0.034
41.33,32.814,-0.057
41.36,28.252,-0.069
41.39,23.654,-0.046
41.42,19.092,0.0
41.46,14.6,0.011
41.49,10.107,0.0
41.52,5.685,0.0
41.55,1.334,-0.034
41.59,-3.018,-0.069
41.62,-7.265,-0.218
41.65,-11.546,-0.412
41.68,-15.793,-0.733
41.72,-20.039,-1.042
41.75,-24.11,-1.535
41.78,-28.673,-1.844
41.81,-33.27,-2.051
41.85,-38.008,-2.028
41.88,-41.763,-2.039
41.91,-48.01,-2.348
41.94,-51.836,-1.684
41.98,-55.24,-2.165
42.01,-60.504,-1.959
42.04,-63.768,-1.867
42.07,-67.628,-1.982
42.11,-71.349,-1.913
42.14,-74.753,-1.89
42.17,-78.262,-2.005
42.2,-82.053,-2.005
42.24,-85.808,-2.062
42.27,-89.528,-2.073
42.3,-93.248,-2.131
42.33,-97.073,-2.142
42.37,-100.618,-2.165
42.4,-104.198,-2.188
42.43,-107.742,-2.257
42.46,-111.252,-2.257
42.5,-114.726,-2.268
42.53,-118.341,-2.337
42.56,-121.991,-2.348
42.59,-125.676,-2.371
42.63,-129.361,-2.429
42.66,-132.906,-2.463
42.69,-136.45,-2.486
42.72,-140.205,-2.566
42.76,-144.241,-2.589
42.79,-148.277,-2.623
42.82,-152.313,-2.669
42.86,-156.209,-2.669
42.89,-159.859,-2.704
42.92,-163.438,-2.738
42.95,-167.088,-2.738
42.99,-170.598,-2.738
43.02,-174.142,-2.749
43.05,-177.547,-2.795
43.08,-181.056,-2.83
43.12,-184.39,-2.864
43.15,-187.759,-2.933
43.18,-191.199,-2.99
43.21,-194.708,-3.001
43.25,-197.937,-3.013
43.28,-201.622,-3.024
43.31,-203.728,-2.818
43.34,-207.974,-3.391
43.38,-211.659,-2.83
43.41,-213.554,-3.116
43.44,-217.38,-3.219
43.47,-220.117,-3.082
43.51,-223.03,-3.208
43.54,-226.048,-3.208
43.57,-228.751,-3.242
43.6,-231.348,-3.23
43.64,-233.875,-3.219
43.67,-236.296,-3.208
43.7,-238.647,-3.208
43.73,-240.894,-3.276
43.77,-243.596,-3.379
43.8,-246.368,-3.414
43.83,-249.141,-3.494
43.86,-252.089,-3.54
43.9,-255.002,-3.528
43.93,-257.634,-3.563
43.96,-260.126,-3.54
43.99,-262.337,-3.517
44.03,-264.407,-3.505
44.06,-266.548,-3.505
44.09,-268.794,-3.528
44.12,-271.146,-3.551
44.16,-273.392,-3.551
44.19,-275.568,-3.586
44.22,-277.708,-3.62
44.25,-279.849,-3.643
44.29,-281.885,-3.654
44.32,-283.815,-3.677
44.35,-285.815,-3.723
44.38,-287.781,-3.723
44.42,-289.606,-3.746
44.45,-291.431,-3.78
44.48,-293.326,-3.792
44.51,-295.186,-3.78
44.55,-296.765,-3.815
44.58,-298.485,-3.861
44.61,-300.275,-3.838
44.64,-301.819,-3.838
44.68,-303.293,-3.826
44.71,-304.626,-3.838
44.74,-306.03,-3.849
44.77,-307.364,-3.792
44.81,-308.487,-3.792
44.84,-309.75,-3.78
44.87,-310.979,-3.78
44.91,-312.207,-3.792
44.94,-313.33,-3.838
44.97,-314.453,-3.883
45.0,-315.436,-3.861
45.04,-316.243,-3.849
45.07,-316.98,-3.849
45.1,-317.682,-3.826
45.13,-318.384,-3.769
45.17,-319.016,-3.746
45.2,-319.577,-3.735
45.23,-320.068,-3.78
45.26,-320.7,-3.815
45.3,-321.297,-3.803
45.33,-321.823,-3.826
45.36,-322.42,-3.838
45.39,-322.981,-3.838
45.43,-323.508,-3.849
45.46,-324.034,-3.872
45.49,-324.49,-3.861
45.52,-324.982,-3.872
45.56,-325.508,-3.883
45.59,-325.929,-3.883
45.62,-326.421,-3.861
45.65,-326.772,-3.849
45.69,-327.333,-3.826
45.72,-327.403,-3.735
45.75,-327.93,-3.826
45.78,-328.526,-3.735
45.82,-328.105,-3.723
45.85,-328.632,-3.941
45.88,-329.333,-3.861
45.91,-329.509,-3.872
45.95,-329.79,-3.895
45.98,-330.0,-3.872
46.01,-330.386,-3.826
46.04,-330.527,-3.815
46.08,-330.772,-3.826
46.11,-330.913,-3.815
46.14,-331.053,-3.826
46.17,-331.229,-3.815
46.21,-331.369,-3.78
46.24,-331.439,-3.746
46.27,-331.544,-3.746
46.3,-331.65,-3.735
46.34,-331.72,-3.677
46.37,-331.755,-3.654
46.4,-331.79,-3.654
46.43,-331.825,-3.654
46.47,-331.86,-3.666
46.5,-331.825,-3.712
46.53,-331.825,-3.723
46.56,-331.895,-3.723
46.6,-331.86,-3.654
46.63,-331.825,-3.597
46.66,-331.755,-3.586
46.69,-331.755,-3.528
46.73,-331.65,-3.494
46.76,-331.474,-3.505
46.79,-331.334,-3.517
46.82,-331.123,-3.482
46.86,-330.913,-3.425
46.89,-330.527,-3.402
46.92,-330.07,-3.356
46.96,-329.404,-3.265
46.99,-328.596,-3.253
47.02,-326.912,-2.99
47.05,-325.192,-3.104
47.09,-324.174,-3.001
47.12,-321.858,-2.864
47.15,-319.682,-2.956
47.18,-317.682,-2.841
47.22,-315.646,-2.841
47.25,-313.541,-2.761
47.28,-311.014,-2.692
47.31,-308.487,-2.635
47.35,-305.925,-2.612
47.38,-303.258,-2.555
47.41,-300.31,-2.509
47.44,-297.221,-2.474
47.48,-294.028,-2.406
47.51,-290.834,-2.325
47.54,-287.605,-2.28
47.57,-284.306,-2.257
47.61,-281.148,-2.234
47.64,-277.954,-2.211
47.67,-274.796,-2.234
47.7,-271.883,-2.234
47.74,-268.935,-2.211
47.77,-265.987,-2.154
47.8,-262.933,-2.085
47.83,-259.669,-2.028
47.87,-256.406,-1.982
47.9,-253.072,-1.947
47.93,-249.738,-1.925
47.96,-246.474,-1.925
48.0,-243.175,-1.913
48.03,-239.981,-1.89
48.06,-236.752,-1.844
48.09,-233.629,-1.799
48.13,-230.47,-1.741
48.16,-227.206,-1.707
48.19,-223.837,-1.661
48.22,-220.503,-1.615
48.26,-217.064,-1.558
48.29,-213.589,-1.512
48.32,-210.045,-1.455
48.35,-206.395,-1.398
48.39,-202.78,-1.34
48.42,-199.095,-1.26
48.45,-195.34,-1.226
48.48,-191.62,-1.18
48.52,-187.724,-1.134
48.55,-183.829,-1.123
48.58,-179.793,-1.088
48.61,-175.757,-1.077
48.65,-171.616,-1.031
48.68,-167.474,-0.951
48.71,-163.228,-0.859
48.74,-158.981,-0.768
48.78,-154.594,-0.71
48.81,-150.208,-0.664
48.84,-145.786,-0.642
48.88,-141.293,-0.619
48.91,-136.801,-0.596
48.94,-132.239,-0.561
48.97,-127.747,-0.515
49.01,-123.254,-0.47
49.04,-118.727,-0.435
49.07,-114.235,-0.378
49.1,-109.673,-0.367
49.14,-105.145,-0.321
49.17,-100.618,-0.241
49.2,-96.021,-0.218
49.23,-91.353,-0.241
49.27,-86.755,-0.229
49.3,-82.193,-0.218
49.33,-77.736,-0.16
49.36,-73.244,-0.16
49.4,-68.752,-0.092
49.43,-64.259,-0.103
49.46,-59.732,-0.092
49.49,-55.17,-0.172
49.53,-50.748,-0.103
49.56,-46.291,-0.149
49.59,-41.693,0.023
49.62,-37.341,-0.172
49.66,-33.621,-0.034
49.69,-27.48,0.195
49.72,-23.654,-0.309
49.75,-19.829,0.115
49.79,-14.319,0.046
49.82,-9.862,-0.126
49.85,-6.001,-0.057
49.88,-1.299,0.034
49.92,3.088,-0.046
49.95,7.159,0.126
49.98,11.511,0.355
50.01,15.863,0.63
50.05,19.934,0.962
50.08,24.075,1.455
50.11,28.497,1.799
50.14,33.13,1.982
50.18,37.727,2.085
50.21,42.535,2.119
50.24,46.992,2.039
50.27,51.379,2.051
50.31,55.626,2.005
50.34,59.697,1.982
50.37,63.557,1.925
50.4,67.278,1.913
50.44,71.068,1.902
50.47,74.718,1.913
50.5,78.297,1.959
50.53,82.053,2.005
50.57,85.738,2.039
50.6,89.458,2.142
50.63,93.213,2.211
50.66,96.933,2.199
50.7,100.583,2.188
50.73,104.198,2.154
50.76,107.777,2.211
50.79,111.357,2.234
50.83,114.832,2.291
50.86,118.376,2.394
50.89,122.131,2.44
50.93,125.781,2.451
50.96,129.607,2.474
50.99,133.257,2.451
51.02,137.117,2.474
51.06,140.03,2.394
51.09,144.452,2.784
51.12,148.769,2.543
51.15,151.962,2.738
51.19,156.454,2.83
51.22,160.104,2.692
51.25,163.719,2.772
51.28,167.509,2.749
51.32,171.089,2.749
51.35,174.529,2.761
51.38,178.003,2.807
51.41,181.407,2.875
51.45,184.917,2.921
51.48,188.216,2.933
51.51,191.69,3.024
51.54,195.164,3.024
51.58,198.428,3.047
51.61,201.797,3.059
51.64,204.921,3.036
51.67,208.115,3.104
51.71,211.343,3.15
51.74,214.467,3.173
51.77,217.555,3.185
51.8,220.503,3.208
51.84,223.416,3.23
51.87,226.399,3.219
51.9,229.207,3.196
51.93,231.944,3.208
51.97,234.471,3.219
52.0,236.893,3.242
52.03,239.174,3.288
52.06,241.701,3.334
52.1,244.298,3.368
52.13,246.965,3.46
52.16,249.948,3.528
52.19,252.861,3.54
52.23,255.423,3.54
52.26,257.809,3.574
52.29,260.126,3.574
52.32,262.267,3.551
52.36,264.442,3.597
52.39,266.794,3.597
52.42,269.18,3.597
52.45,271.391,3.643
52.49,273.813,3.643
52.52,276.024,3.62
52.55,278.13,3.643
52.58,280.13,3.712
52.62,282.166,3.677
52.65,284.061,3.723
52.68,285.991,3.735
52.71,287.886,3.757
52.75,289.781,3.769
52.78,291.501,3.757
52.81,293.256,3.792
52.84,295.081,3.826
52.88,297.327,3.906
52.91,299.117,3.826
52.94,300.45,3.826
52.98,301.749,3.872
53.01,303.468,3.964
53.04,305.083,3.975
53.07,306.03,3.803
53.11,306.662,3.906
53.14,309.084,4.021
53.17,309.856,3.666
53.2,311.295,4.032
53.24,312.593,3.792
53.27,313.435,4.044
53.3,314.804,3.918
53.33,315.576,4.009
53.37,316.734,3.918
53.4,317.471,3.826
53.43,318.138,3.769
53.46,318.7,3.735
53.5,319.226,3.746
53.53,319.682,3.838
53.56,320.244,3.883
53.59,320.84,3.929
53.63,321.402,3.964
53.66,321.999,3.918
53.69,322.63,3.895
53.72,323.122,3.838
53.76,323.578,3.838
53.79,324.139,3.872
53.82,324.561,3.883
53.85,325.052,3.883
53.89,325.578,3.883
53.92,325.999,3.918
53.95,326.456,3.941
53.98,326.877,3.941
54.02,327.368,3.918
54.05,327.719,3.929
54.08,328.105,3.941
54.11,328.386,3.895
54.15,328.21,3.872
54.18,328.947,4.009
54.21,329.439,3.861
54.24,329.579,3.929
54.28,329.93,3.918
54.31,330.141,3.918
54.34,330.457,3.872
54.37,330.632,3.872
54.41,330.913,3.849
54.44,331.053,3.838
54.47,331.194,3.861
54.5,331.334,3.849
54.54,331.474,3.872
54.57,331.615,3.815
54.6,331.72,3.746
54.63,331.755,3.712
54.67,331.86,3.723
54.7,331.931,3.666
54.73,331.86,3.746
54.76,332.036,3.723
54.8,331.966,3.723
54.83,332.036,3.746
54.86,332.071,3.666
54.89,332.001,3.666
54.93,332.036,3.631
54.96,332.001,3.608
54.99,331.825,3.597
55.03,331.79,3.62
55.06,331.72,3.597
55.09,331.58,3.586
55.12,331.404,3.574
55.16,331.194,3.54
55.19,330.948,3.482
55.22,330.527,3.448
55.25,330.07,3.379
55.29,329.404,3.322
55.32,328.491,3.299
55.35,327.158,3.208
55.38,325.333,3.104
55.42,323.824,3.185
55.45,322.279,3.024
55.48,320.174,2.944
55.51,318.138,2.875
55.55,315.787,2.795
55.58,313.506,2.784
55.61,311.049,2.761
55.64,308.592,2.749
55.68,306.065,2.704
55.71,303.293,2.658
55.74,300.38,2.589
55.77,297.362,2.509
55.81,294.133,2.429
55.84,291.01,2.348
55.87,287.675,2.291
55.9,284.412,2.28
55.94,281.183,2.268
55.97,278.024,2.257
56.0,274.936,2.28
56.03,272.023,2.268
56.07,269.145,2.199
56.1,266.232,2.131
56.13,263.074,2.073
56.16,259.915,2.028
56.2,256.546,1.993
56.23,253.107,2.016
56.26,249.843,2.005
56.29,246.544,1.97
56.33,243.245,1.959
56.36,240.086,1.925
56.39,236.928,1.833
56.42,233.769,1.764
56.46,230.611,1.718
56.49,227.277,1.673
56.52,223.943,1.65
56.55,220.573,1.615
56.59,217.099,1.592
56.62,213.66,1.524
56.65,210.115,1.466
56.68,206.535,1.409
56.72,202.921,1.329
56.75,199.236,1.237
56.78,195.445,1.214
56.81,191.655,1.203
56.85,187.759,1.18
56.88,183.864,1.123
56.91,179.863,1.065
56.94,175.827,1.02
56.98,171.791,0.962
57.01,167.58,0.882
57.04,163.368,0.802
57.08,159.052,0.71
57.11,154.559,0.676
57.14,150.172,0.676
57.17,145.786,0.619
57.21,141.258,0.573
57.24,136.801,0.584
57.27,132.309,0.573
57.3,127.817,0.515
57.34,123.395,0.435
57.37,118.832,0.389
57.4,114.34,0.378
57.43,109.778,0.367
57.47,105.215,0.344
57.5,100.688,0.321
57.53,96.056,0.332
57.56,91.563,0.309
57.6,87.036,0.252
57.63,82.544,0.183
57.66,78.052,0.137
57.69,73.489,0.103
57.73,68.962,0.103
57.76,64.505,0.092
57.79,59.943,0.08
57.82,55.415,0.069
57.86,50.853,0.057
57.89,46.361,0.057
57.92,41.869,-0.023
57.95,37.341,-0.057
57.99,32.744,-0.08
58.02,28.252,-0.023
58.05,23.654,0.0
58.08,19.162,0.023
58.12,14.6,-0.023
58.15,10.248,0.034
58.18,5.791,-0.034
58.21,1.474,0.0
58.25,-2.948,-0.126
58.28,-7.124,-0.172
58.31,-11.757,-0.527
58.34,-15.266,-0.493
58.38,-19.688,-1.363
58.41,-25.304,-1.489
58.44,-28.287,-1.718
58.47,-33.34,-2.199
58.51,-38.359,-2.039
58.54,-42.816,-2.154
58.57,-47.273,-2.062
58.6,-51.555,-2.028
58.64,-55.801,-1.959
58.67,-59.978,-1.913
58.7,-63.768,-1.844
58.73,-67.558,-1.844
58.77,-71.208,-1.81
58.8,-74.788,-1.913
58.83,-78.438,-2.005
58.86,-82.123,-2.051
58.9,-85.773,-2.073
58.93,-89.528,-2.131
58.96,-93.283,-2.131
58.99,-97.003,-2.108
59.03,-100.618,-2.108
59.06,-104.198,-2.131
59.09,-107.602,-2.165
59.13,-111.147,-2.257
59.16,-114.796,-2.28
59.19,-118.306,-2.337
59.22,-121.851,-2.394
59.26,-125.641,-2.394
59.29,-129.361,-2.417
59.32,-133.116,-2.417
59.35,-136.626,-2.371
59.39,-140.311,-2.451
59.42,-144.312,-2.52
59.45,-148.312,-2.612
59.48,-152.243,-2.715
59.52,-156.104,-2.795
59.55,-159.859,-2.749
59.58,-163.544,-2.749
59.61,-167.053,-2.726
59.65,-170.738,-2.761
59.68,-174.178,-2.738
59.71,-177.792,-2.864
59.74,-180.811,-2.704
59.78,-184.425,-3.059
59.81,-188.531,-2.852
59.84,-190.988,-2.887
59.87,-194.814,-3.093
59.91,-198.148,-2.99
59.94,-201.411,-3.024
59.97,-204.114,-2.956
60.0,-207.869,-3.208
60.04,-211.063,-2.967
60.07,-213.765,-3.15
60.1,-217.274,-3.162
60.13,-220.258,-3.116
60.17,-223.206,-3.139
60.2,-226.118,-3.15
60.23,-228.856,-3.139
60.26,-231.488,-3.139
60.3,-233.98,-3.185
60.33,-236.401,-3.208
60.36,-238.612,-3.242
60.39,-241.069,-3.311
60.43,-243.701,-3.356
60.46,-246.298,-3.391
60.49,-249.036,-3.482
60.52,-252.054,-3.517
60.56,-254.967,-3.528
60.59,-257.739,-3.563
60.62,-260.231,-3.528
60.65,-262.302,-3.54
60.69,-264.442,-3.54
60.72,-266.618,-3.54
60.75,-268.935,-3.563
60.78,-271.251,-3.574
60.82,-273.532,-3.586
60.85,-275.708,-3.597
60.88,-277.849,-3.631
60.91,-279.919,-3.654
60.95,-281.92,-3.689
60.98,-283.885,-3.689
61.01,-285.675,-3.735
61.04,-287.921,-3.757
61.08,-289.746,-3.746
61.11,-291.466,-3.78
61.14,-293.291,-3.78
61.18,-295.045,-3.815
61.21,-296.87,-3.792
61.24,-298.625,-3.803
61.27,-300.31,-3.815
61.31,-301.819,-3.826
61.34,-303.258,-3.815
61.37,-304.626,-3.838
61.4,-305.995,-3.815
61.44,-307.294,-3.803
61.47,-308.522,-3.815
61.5,-309.75,-3.826
61.53,-310.979,-3.803
61.57,-312.102,-3.838
61.6,-313.33,-3.861
61.63,-314.418,-3.895
61.66,-315.471,-3.883
61.7,-316.348,-3.861
61.73,-317.085,-3.838
61.76,-317.752,-3.838
61.79,-318.384,-3.792
61.83,-318.98,-3.826
61.86,-319.577,-3.826
61.89,-319.647,-3.849
61.92,-320.84,-4.044
61.96,-321.472,-3.815
61.99,-321.858,-3.906
62.02,-322.56,-3.826
62.05,-322.946,-3.861
62.09,-323.578,-3.838
62.12,-323.999,-3.849
62.15,-324.525,-3.861
62.18,-324.947,-3.906
62.22,-325.543,-3.906
62.25,-326.035,-3.918
62.28,-326.491,-3.883
62.31,-326.947,-3.872
62.35,-327.333,-3.849
62.38,-327.719,-3.861
62.41,-328.07,-3.861
62.44,-328.491,-3.895
62.48,-328.316,-3.792
62.51,-328.632,-3.998
62.54,-329.509,-3.895
62.57,-329.614,-3.872
62.61,-330.0,-3.895
62.64,-330.106,-3.838
62.67,-330.457,-3.838
62.7,-330.667,-3.792
62.74,-330.843,-3.803
62.77,-330.948,-3.849
62.8,-331.123,-3.883
62.83,-331.264,-3.861
62.87,-331.369,-3.838
62.9,-331.509,-3.803
62.93,-331.58,-3.792
62.96,-331.65,-3.746
63.0,-331.72,-3.769
63.03,-331.755,-3.792
63.06,-331.825,-3.826
63.09,-331.931,-3.746
63.13,-331.931,-3.712
63.16,-331.931,-3.689
63.19,-331.966,-3.666
63.23,-331.931,-3.631
63.26,-331.86,-3.643
63.29,-331.825,-3.62
63.32,-331.79,-3.597
63.36,-331.72,-3.586
63.39,-331.615,-3.574
63.42,-331.509,-3.574
63.45,-331.334,-3.574
63.49,-331.229,-3.528
63.52,-330.948,-3.414
63.55,-330.562,-3.368
63.58,-330.035,-3.299
63.62,-329.333,-3.299
63.65,-328.421,-3.196
63.68,-326.561,-3.082
63.71,-325.543,-3.219
63.75,-324.315,-2.933
63.78,-321.893,-2.921
63.81,-319.858,-2.921
63.84,-317.822,-2.864
63.88,-316.068,-2.83
63.91,-313.751,-2.692
63.94,-310.944,-2.669
63.97,-308.311,-2.623
64.01,-305.714,-2.555
64.04,-302.942,-2.509
64.07,-300.064,-2.509
64.1,-297.151,-2.463
64.14,-294.098,-2.417
64.17,-290.904,-2.371
64.2,-287.675,-2.314
64.23,-284.412,-2.303
64.27,-281.183,-2.268
64.3,-277.954,-2.257
64.33,-274.796,-2.268
64.36,-271.883,-2.234
64.4,-268.9,-2.211
64.43,-265.881,-2.165
64.46,-262.793,-2.131
64.49,-259.669,-2.096
64.53,-256.3,-2.062
64.56,-252.966,-2.016
64.59,-249.702,-1.982
64.62,-246.439,-1.959
64.66,-243.28,-1.902
64.69,-240.051,-1.821
64.72,-236.787,-1.81
64.75,-233.664,-1.764
64.79,-230.4,-1.73
64.82,-227.136,-1.684
64.85,-223.802,-1.627
64.88,-220.433,-1.604
64.92,-216.994,-1.569
64.95,-213.519,-1.501
64.98,-209.904,-1.466
65.01,-206.325,-1.432
65.05,-202.71,-1.375
65.08,-199.06,-1.317
65.11,-195.34,-1.249
65.14,-191.585,-1.168
65.18,-187.724,-1.123
65.21,-183.829,-1.111
65.24,-179.828,-1.077
65.28,-175.792,-1.02
65.31,-171.686,-0.939
65.34,-167.474,-0.871
65.37,-163.158,-0.848
65.41,-158.911,-0.779
65.44,-154.489,-0.722
65.47,-150.067,-0.699
65.5,-145.645,-0.664
65.54,-141.188,-0.642
65.57,-136.696,-0.596
65.6,-132.169,-0.573
65.63,-127.747,-0.515
65.67,-123.184,-0.447
65.7,-118.692,-0.401
65.73,-114.165,-0.355
65.76,-109.673,-0.286
65.8,-105.04,-0.263
65.83,-100.443,-0.252
65.86,-95.845,-0.241
65.89,-91.353,-0.206
65.93,-86.79,-0.206
65.96,-82.263,-0.172
65.99,-77.806,-0.183
66.02,-73.314,-0.137
66.06,-68.787,-0.149
66.09,-64.294,-0.126
66.12,-59.872,-0.172
66.15,-55.275,-0.092
66.19,-50.818,-0.16
66.22,-46.185,0.023
66.25,-41.693,-0.195
66.28,-38.008,0.011
66.32,-31.691,0.206
66.35,-27.936,-0.286
66.38,-24.04,0.092
66.41,-18.46,-0.023
66.45,-14.178,-0.149
66.48,-10.353,-0.103
66.51,-5.685,0.011
66.54,-1.263,-0.126
66.58,2.843,-0.034
66.61,7.23,0.103
66.64,11.546,0.332
66.67,15.793,0.596
66.71,20.004,0.985
66.74,24.251,1.409
66.77,28.708,1.787
66.8,33.235,1.959
66.84,37.798,2.142
66.87,42.57,2.154
66.9,47.063,2.073
66.93,51.45,2.051
66.97,55.766,1.982
67.0,59.802,1.925
67.03,63.593,1.925
67.06,67.418,1.936
67.1,71.138,1.913
67.13,74.858,1.913
67.16,78.403,1.959
67.19,82.088,2.005
67.23,85.703,2.016
67.26,89.352,2.119
67.29,93.248,2.131
67.33,96.933,2.154
67.36,100.583,2.165
67.39,104.268,2.188
67.42,107.848,2.211
67.46,111.427,2.291
67.49,114.972,2.325
67.52,118.587,2.394
67.55,122.202,2.394
67.59,125.992,2.429
67.62,129.607,2.394
67.65,133.607,2.497
67.68,136.591,2.303
67.72,140.451,2.704
67.75,144.838,2.497
67.78,147.751,2.623
67.81,152.348,2.841
67.85,156.314,2.715
67.88,160.104,2.841
67.91,163.93,2.807
67.94,167.545,2.852
67.98,171.089,2.83
68.01,174.493,2.864
68.04,178.003,2.91
68.07,181.512,2.933
68.11,184.882,2.956
68.14,188.391,2.99
68.17,191.69,2.99
68.2,195.094,3.013
68.24,198.428,2.978
68.27,201.727,3.013
68.3,204.921,3.059
68.33,208.15,3.116
68.37,211.308,3.185
68.4,214.397,3.196
68.43,217.52,3.208
68.46,220.538,3.208
68.5,223.521,3.208
68.53,226.434,3.23
68.56,229.172,3.219
68.59,231.804,3.265
68.63,234.401,3.276
68.66,236.787,3.288
68.69,239.034,3.368
68.72,241.631,3.402
68.76,244.122,3.437
68.79,246.895,3.46
68.82,249.843,3.471
68.85,252.65,3.517
68.89,255.212,3.505
68.92,257.529,3.551
68.95,259.95,3.586
68.98,262.161,3.586
69.02,264.372,3.62
69.05,266.618,3.7
69.08,269.075,3.735
69.11,271.497,3.746
69.15,273.848,3.746
69.18,276.129,3.746
69.21,278.34,3.746
69.25,280.341,3.769
69.28,282.306,3.792
69.31,284.201,3.803
69.34,286.096,3.849
69.38,288.026,3.872
69.41,289.816,3.838
69.44,291.536,3.838
69.47,293.291,3.849
69.51,294.975,3.906
69.54,296.66,3.906
69.57,298.415,3.941
69.6,300.029,3.975
69.64,301.714,4.044
69.67,303.258,3.918
69.7,304.872,3.987
69.73,305.995,3.735
69.77,306.697,3.906
69.8,309.084,4.009
69.83,309.715,3.849
69.86,311.259,4.193
69.9,312.523,3.918
69.93,313.365,4.124
69.96,314.558,4.021
69.99,315.401,4.044
70.03,316.348,3.941
70.06,317.05,3.918
70.09,317.682,3.895
70.12,318.243,3.964
70.16,319.016,3.941
70.19,319.542,3.964
70.22,320.139,3.964
70.25,320.77,3.975
70.29,321.332,3.975
70.32,321.964,3.975
70.35,322.49,3.941
70.38,323.051,3.941
70.42,323.578,3.941
70.45,324.139,3.964
70.48,324.596,3.941
70.51,325.087,3.941
70.55,325.578,3.998
70.58,326.035,3.998
70.61,326.491,3.975
70.64,326.982,3.895
70.68,327.333,3.895
70.71,327.754,3.906
70.74,328.105,3.906
70.77,328.351,3.883
70.81,328.175,3.861
70.84,328.912,4.055
70.87,329.439,3.918
70.9,329.544,4.021
70.94,329.965,3.918
70.97,330.141,3.918
71.0,330.457,3.906
71.03,330.632,3.895
71.07,330.807,3.918
71.1,331.053,3.918
71.13,331.158,3.929
71.16,331.404,3.895
71.2,331.509,3.872
71.23,331.615,3.861
71.26,331.685,3.826
71.3,331.755,3.826
71.33,331.86,3.815
71.36,331.895,3.815
71.39,331.966,3.815
71.43,332.036,3.803
71.46,332.036,3.792
71.49,332.106,3.746
71.52,332.106,3.7
71.56,332.071,3.677
71.59,332.001,3.643
71.62,331.931,3.7
71.65,331.931,3.666
71.69,331.825,3.666
71.72,331.65,3.666
71.75,331.544,3.712
71.78,331.439,3.62
71.82,331.158,3.631
71.85,330.983,3.574
71.88,330.632,3.471
71.91,330.07,3.414
71.95,329.404,3.391
71.98,328.526,3.311
72.01,327.228,3.265
72.04,325.789,3.196
72.08,323.543,3.07
72.11,321.928,3.127
72.14,320.279,2.956
72.17,318.173,2.944
72.21,315.997,2.91
72.24,313.47,2.818
72.27,310.944,2.818
72.3,308.592,2.715
72.34,305.89,2.692
72.37,303.188,2.669
72.4,300.485,2.612
72.43,297.502,2.589
72.47,294.449,2.509
72.5,291.115,2.394
72.53,287.675,2.36
72.56,284.306,2.348
72.6,280.972,2.36
72.63,277.744,2.383
72.66,274.725,2.36
72.69,271.812,2.337
72.73,269.005,2.28
72.76,266.092,2.211
72.79,263.039,2.165
72.82,259.88,2.119
72.86,256.441,2.119
72.89,253.142,2.131
72.92,249.878,2.073
72.95,246.544,2.039
72.99,243.28,2.028
73.02,240.086,1.97
73.05,236.823,1.913
73.08,233.664,1.89
73.12,230.505,1.81
73.15,227.171,1.753
73.18,223.872,1.707
73.21,220.468,1.65
73.25,217.029,1.627
73.28,213.625,1.558
73.31,210.08,1.524
73.35,206.5,1.466
73.38,202.885,1.42
73.41,199.271,1.352
73.44,195.586,1.237
73.48,191.725,1.18
73.51,187.83,1.157
73.54,183.864,1.111
73.57,179.758,1.065
73.61,175.687,1.077
73.64,171.721,0.985
73.67,167.615,0.894
73.7,163.368,0.825
73.74,158.981,0.768
73.77,154.594,0.722
73.8,150.208,0.699
73.83,145.75,0.676
73.87,141.434,0.664
73.9,136.942,0.63
73.93,132.414,0.619
73.96,127.957,0.538
74.0,123.395,0.458
74.03,118.832,0.424
74.06,114.34,0.367
74.09,109.743,0.332
74.13,105.215,0.309
74.16,100.548,0.286
74.19,95.985,0.298
74.22,91.458,0.286
74.26,86.896,0.275
74.29,82.404,0.252
74.32,78.122,0.16
74.35,73.595,0.092
74.39,69.032,0.08
74.42,64.61,0.092
74.45,60.083,0.069
74.48,55.521,0.057
74.52,50.888,0.08
74.55,46.361,0.092
74.58,41.798,0.046
74.61,37.236,-0.023
74.65,32.709,-0.046
74.68,28.181,-0.08
74.71,23.549,-0.057
74.74,18.987,0.011
74.78,14.635,0.0
74.81,10.248,-0.034
74.84,5.826,-0.023
74.87,1.334,-0.069
74.91,-2.878,-0.092
74.94,-7.3,-0.241
74.97,-11.511,-0.435
75.0,-15.863,-0.756
75.04,-20.004,-1.088
75.07,-24.321,-1.569
75.1,-28.638,-1.81
75.13,-33.586,-2.062
75.17,-37.306,-1.821
75.2,-42.676,-2.406
75.23,-48.256,-1.89
75.26,-50.818,-1.947
75.3,-56.012,-2.268
75.33,-60.329,-1.787
75.36,-63.698,-1.867
75.4,-67.699,-1.89
75.43,-71.278,-1.81
75.46,-74.542,-1.879
75.49,-78.262,-1.97
75.53,-81.912,-2.005
75.56,-85.632,-2.085
75.59,-89.352,-2.108
75.62,-93.213,-2.199
75.66,-96.933,-2.154
75.69,-100.548,-2.177
75.72,-104.198,-2.199
75.75,-107.707,-2.211
75.79,-111.182,-2.245
75.82,-114.796,-2.28
75.85,-118.341,-2.314
75.88,-121.886,-2.348
75.92,-125.606,-2.394
75.95,-129.291,-2.429
75.98,-132.976,-2.463
76.01,-136.52,-2.429
76.05,-140.17,-2.52
76.08,-144.206,-2.589
76.11,-148.242,-2.669
76.14,-152.243,-2.749
76.18,-156.139,-2.784
76.21,-159.929,-2.738
76.24,-163.509,-2.738
76.27,-167.088,-2.738
76.31,-170.703,-2.738
76.34,-174.107,-2.749
76.37,-177.547,-2.795
76.4,-180.916,-2.841
76.44,-184.46,-2.944
76.47,-187.794,-2.933
76.5,-191.234,-3.001
76.53,-194.498,-2.99
76.57,-198.148,-3.116
76.6,-200.85,-2.852
76.63,-203.868,-3.219
76.66,-208.36,-3.104
76.7,-210.501,-2.944
76.73,-214.011,-3.334
76.76,-217.345,-3.116
76.79,-219.977,-3.208
76.83,-223.065,-3.23
76.86,-225.943,-3.219
76.89,-228.61,-3.208
76.92,-231.313,-3.23
76.96,-233.839,-3.219
76.99,-236.261,-3.253
77.02,-238.472,-3.288
77.05,-240.894,-3.402
77.09,-243.701,-3.425
77.12,-246.333,-3.46
77.15,-249.141,-3.517
77.18,-252.124,-3.563
77.22,-255.002,-3.563
77.25,-257.845,-3.574
77.28,-260.301,-3.517
77.31,-262.337,-3.517
77.35,-264.337,-3.563
77.38,-266.513,-3.608
77.41,-268.9,-3.62
77.45,-271.111,-3.643
77.48,-273.286,-3.654
77.51,-275.497,-3.689
77.54,-277.673,-3.746
77.58,-279.884,-3.757
77.61,-281.955,-3.723
77.64,-283.885,-3.735
77.67,-285.886,-3.803
77.71,-287.851,-3.849
77.74,-289.746,-3.838
77.77,-291.466,-3.838
77.8,-293.291,-3.838
77.84,-295.01,-3.861
77.87,-296.765,-3.872
77.9,-298.555,-3.838
77.93,-300.099,-3.826
77.97,-301.608,-3.849
78.0,-303.012,-3.883
78.03,-304.381,-3.918
78.06,-305.82,-3.941
78.1,-307.153,-3.941
78.13,-308.487,-3.929
78.16,-309.75,-3.918
78.19,-310.944,-3.906
78.23,-312.137,-3.906
78.26,-313.26,-3.918
78.29,-314.348,-3.952
78.32,-315.576,-3.929
78.36,-316.348,-3.883
78.39,-317.155,-3.895
78.42,-317.857,-3.849
78.45,-318.384,-3.861
78.49,-319.086,-3.838
78.52,-319.577,-3.849
78.55,-320.244,-3.895
78.58,-320.805,-3.861
78.62,-321.262,-3.918
78.65,-321.858,-3.941
78.68,-322.42,-3.952
78.71,-322.946,-3.952
78.75,-323.473,-3.918
78.78,-324.069,-3.883
78.81,-324.49,-3.849
78.84,-324.947,-3.883
78.88,-325.438,-3.883
78.91,-325.929,-3.918
78.94,-326.28,-3.975
78.97,-326.842,-3.987
79.01,-326.982,-3.849
79.04,-327.473,-3.929
79.07,-328.07,-3.815
79.1,-328.281,-3.826
79.14,-328.14,-3.792
79.17,-328.561,-4.044
79.2,-329.544,-3.941
79.23,-329.439,-3.918
79.27,-329.895,-4.021
79.3,-330.07,-3.861
79.33,-330.351,-3.941
79.36,-330.632,-3.838
79.4,-330.772,-3.895
79.43,-330.983,-3.849
79.46,-331.018,-3.883
79.5,-331.299,-3.883
79.53,-331.299,-3.883
79.56,-331.474,-3.895
79.59,-331.615,-3.792
79.63,-331.685,-3.78
79.66,-331.72,-3.746
79.69,-331.755,-3.769
79.72,-331.825,-3.757
79.76,-331.79,-3.757
79.79,-331.931,-3.757
79.82,-331.825,-3.757
79.85,-331.86,-3.769
79.89,-331.825,-3.746
79.92,-331.86,-3.757
79.95,-331.895,-3.712
79.98,-331.825,-3.654
80.02,-331.755,-3.62
80.05,-331.615,-3.608
80.08,-331.544,-3.597
80.11,-331.404,-3.551
80.15,-331.158,-3.528
80.18,-330.913,-3.517
80.21,-330.562,-3.494
80.24,-330.07,-3.425
80.28,-329.439,-3.345
80.31,-328.632,-3.253
80.34,-326.807,-3.036
80.37,-325.403,-3.162
80.41,-324.315,-2.967
80.44,-321.964,-2.887
80.47,-319.928,-2.967
80.5,-317.822,-2.887
80.54,-315.787,-2.887
80.57,-313.611,-2.784
80.6,-310.944,-2.726
80.63,-308.347,-2.749
80.67,-305.89,-2.681
80.7,-303.082,-2.612
80.73,-300.134,-2.6
80.76,-297.116,-2.555
80.8,-294.028,-2.474
80.83,-290.869,-2.406
80.86,-287.64,-2.314
80.89,-284.341,-2.268
80.93,-281.113,-2.234
80.96,-277.919,-2.245
80.99,-274.725,-2.28
81.02,-271.742,-2.291
81.06,-268.829,-2.268
81.09,-265.811,-2.245
81.12,-262.723,-2.211
81.15,-259.634,-2.154
81.19,-256.371,-2.062
81.22,-253.001,-2.016
81.25,-249.702,-1.993
81.28,-246.509,-1.959
81.32,-243.245,-1.925
81.35,-240.016,-1.925
81.38,-236.893,-1.867
81.41,-233.629,-1.799
81.45,-230.365,-1.799
81.48,-227.171,-1.73
81.51,-223.837,-1.661
81.55,-220.503,-1.581
81.58,-217.099,-1.535
81.61,-213.554,-1.501
81.64,-210.045,-1.489
81.68,-206.43,-1.432
81.71,-202.78,-1.386
81.74,-199.095,-1.317
81.77,-195.375,-1.272
81.81,-191.62,-1.191
81.84,-187.689,-1.168
81.87,-183.864,-1.134
81.9,-179.828,-1.054
81.94,-175.792,-1.008
81.97,-171.651,-0.974
82.0,-167.58,-0.894
82.03,-163.158,-0.836
82.07,-158.946,-0.779
82.1,-154.559,-0.687
82.13,-150.137,-0.642
82.16,-145.68,-0.653
82.2,-141.223,-0.653
82.23,-136.801,-0.63
82.26,-132.274,-0.607
82.29,-127.817,-0.584
82.33,-123.325,-0.515
82.36,-118.797,-0.47
82.39,-114.27,-0.424
82.42,-109.743,-0.378
82.46,-105.145,-0.298
82.49,-100.513,-0.309
82.52,-95.95,-0.298
82.55,-91.283,-0.298
82.59,-86.755,-0.286
82.62,-82.263,-0.241
82.65,-77.771,-0.195
82.68,-73.349,-0.149
82.72,-68.822,-0.08
82.75,-64.365,-0.103
82.78,-59.908,-0.069
82.81,-55.24,-0.16
82.85,-50.748,-0.16
82.88,-46.291,-0.206
82.91,-41.763,-0.034
82.94,-37.271,-0.149
82.98,-33.621,-0.034
83.01,-27.409,0.241
83.04,-23.338,-0.321
83.07,-19.618,-0.023
83.11,-14.178,-0.057
83.14,-9.721,-0.137
83.17,-5.826,-0.103
83.2,-1.263,0.034
83.24,3.053,-0.046
83.27,7.159,0.126
83.3,11.441,0.344
83.33,15.793,0.63
83.37,19.934,0.962
83.4,24.075,1.455
83.43,28.532,1.821
83.46,33.165,2.016
83.5,37.727,2.119
83.53,42.465,2.154
83.56,46.922,2.073
83.6,51.309,2.039
83.63,55.556,2.005
83.66,59.662,1.982
83.69,63.628,1.925
83.73,67.418,1.902
83.76,71.208,1.879
83.79,74.858,1.879
83.82,78.473,1.925
83.86,82.088,1.97
83.89,85.703,2.016
83.92,89.423,2.062
83.95,93.143,2.085
83.99,96.793,2.142
84.02,100.443,2.154
84.05,104.022,2.177
84.08,107.672,2.234
84.12,111.287,2.257
84.15,114.832,2.268
84.18,118.411,2.314
84.21,122.131,2.383
84.25,125.816,2.44
84.28,129.572,2.451
84.31,133.327,2.451
84.34,136.836,2.429
84.38,140.381,2.509
84.41,144.452,2.589
84.44,148.593,2.623
84.47,152.559,2.692
84.51,156.595,2.738
84.54,160.28,2.761
84.57,163.895,2.795
84.6,167.545,2.807
84.64,171.159,2.807
84.67,174.739,2.807
84.7,178.143,2.807
84.73,181.477,2.864
84.77,184.952,2.887
84.8,188.356,2.921
84.83,191.725,2.956
84.86,195.059,2.99
84.9,198.463,3.001
84.93,201.762,3.001
84.96,205.026,3.013
84.99,208.185,3.059
85.03,211.414,3.082
85.06,214.467,3.093
85.09,217.415,3.15
85.12,220.503,3.208
85.16,223.521,3.208
85.19,226.399,3.219
85.22,229.277,3.208
85.25,232.014,3.208
85.29,234.612,3.23
85.32,236.998,3.276
85.35,239.314,3.322
85.38,241.806,3.379
85.42,244.368,3.402
85.45,247.07,3.471
85.48,250.018,3.505
85.51,252.896,3.494
85.55,255.458,3.471
85.58,257.845,3.517
85.61,260.196,3.528
85.65,262.267,3.528
85.68,264.513,3.563
85.71,266.794,3.574
85.74,269.11,3.631
85.78,271.426,3.666
85.81,273.848,3.666
85.84,276.024,3.654
85.87,278.13,3.643
85.91,280.165,3.677
85.94,282.095,3.712
85.97,284.061,3.769
86.0,285.956,3.803
86.04,287.921,3.883
86.07,289.781,3.849
86.1,291.606,3.803
86.13,293.396,3.735
86.17,295.221,3.757
86.2,296.87,3.78
86.23,298.625,3.872
86.26,300.275,3.872
86.3,301.854,3.964
86.33,303.258,3.895
86.36,304.907,4.021
86.39,305.82,3.723
86.43,306.873,4.009
86.46,309.294,3.872
86.49,309.715,3.815
86.52,311.435,4.044
86.56,312.453,3.861
86.59,313.576,4.067
86.62,314.769,3.918
86.65,315.681,4.009
86.69,316.524,3.918
86.72,317.366,3.883
86.75,317.998,3.803
86.78,318.489,3.803
86.82,319.121,3.757
86.85,319.612,3.826
86.88,320.174,3.861
86.91,320.805,3.918
86.95,321.332,3.941
86.98,321.928,3.941
87.01,322.525,3.929
87.04,323.051,3.895
87.08,323.508,3.872
87.11,324.069,3.872
87.14,324.596,3.849
87.17,325.052,3.849
87.21,325.543,3.849
87.24,326.035,3.849
87.27,326.421,3.861
87.3,326.842,3.883
87.34,327.368,3.826
87.37,327.684,3.803
87.4,328.0,3.849
87.43,328.386,3.861
87.47,328.175,3.815
87.5,328.842,3.998
87.53,329.439,3.861
87.57,329.509,3.941
87.6,329.895,3.929
87.63,330.141,3.895
87.66,330.527,3.861
87.7,330.667,3.815
87.73,330.843,3.815
87.76,331.018,3.803
87.79,331.158,3.815
87.83,331.264,3.838
87.86,331.404,3.872
87.89,331.509,3.872
87.92,331.72,3.826
87.96,331.755,3.746
87.99,331.79,3.735
88.02,331.895,3.723
88.05,331.895,3.735
88.09,331.931,3.746
88.12,332.001,3.735
88.15,332.001,3.769
88.18,332.001,3.757
88.22,332.001,3.723
88.25,332.001,3.7
88.28,331.966,3.654
88.31,331.86,3.631
88.35,331.825,3.597
88.38,331.685,3.586
88.41,331.65,3.551
88.44,331.369,3.528
88.48,331.158,3.551
88.51,330.913,3.494
88.54,330.527,3.448
88.57,330.106,3.356
88.61,329.474,3.299
88.64,328.596,3.219
88.67,327.333,3.15
88.7,325.508,3.082
88.74,323.508,3.139
88.77,322.104,3.104
88.8,320.103,2.978
88.83,318.138,3.013
88.87,316.173,2.864
88.9,313.681,2.807
88.93,311.295,2.749
88.96,308.803,2.692
89.0,306.136,2.681
89.03,303.398,2.612
89.06,300.52,2.52
89.09,297.362,2.486
89.13,294.133,2.486
89.16,290.939,2.44
89.19,287.675,2.406
89.22,284.517,2.325
89.26,281.253,2.291
89.29,278.059,2.314
89.32,275.041,2.291
89.35,272.058,2.245
89.39,269.075,2.234
89.42,266.127,2.199
89.45,263.039,2.154
89.48,259.775,2.062
89.52,256.441,2.016
89.55,253.177,1.982
89.58,249.843,1.959
89.62,246.579,1.936
89.65,243.35,1.902
89.68,240.086,1.879
89.71,236.858,1.89
89.75,233.769,1.867
89.78,230.611,1.764
89.81,227.277,1.73
89.84,223.943,1.707
89.88,220.714,1.638
89.91,217.204,1.569
89.94,213.695,1.546
89.97,210.15,1.524
90.01,206.535,1.478
90.04,202.885,1.42
90.07,199.271,1.34
90.1,195.551,1.237
90.14,191.69,1.191
90.17,187.865,1.146
90.2,183.969,1.123
90.23,179.933,1.088
90.27,175.932,1.042
90.3,171.756,0.997
90.33,167.509,0.962
90.36,163.228,0.905
90.4,158.981,0.836
90.43,154.559,0.768
90.46,150.208,0.722
90.49,145.821,0.687
90.53,141.364,0.63
90.56,136.836,0.607
90.59,132.309,0.584
90.62,127.817,0.561
90.66,123.289,0.493
90.69,118.762,0.447
90.72,114.34,0.389
90.75,109.813,0.344
90.79,105.215,0.332
90.82,100.618,0.309
90.85,96.091,0.286
90.88,91.528,0.286
90.92,87.001,0.252
90.95,82.439,0.206
90.98,78.017,0.172
91.01,73.524,0.115
91.05,68.997,0.08
91.08,64.47,0.08
91.11,59.943,0.092
91.14,55.45,0.069
91.18,50.818,0.069
91.21,46.361,0.08
91.24,41.798,0.023
91.27,37.306,-0.034
91.31,32.779,-0.057
91.34,28.287,-0.069
91.37,23.724,-0.069
91.4,19.127,-0.046
91.44,14.6,-0.023
91.47,10.178,-0.023
91.5,5.756,-0.034
91.53,1.228,-0.046
91.57,-3.053,-0.069
91.6,-7.335,-0.218
91.63,-11.581,-0.424
91.67,-15.933,-0.745
91.7,-20.039,-1.077
91.73,-24.216,-1.558
91.76,-28.638,-1.913
91.8,-33.446,-2.108
91.83,-37.903,-2.096
91.86,-43.097,-2.211
91.89,-46.642,-1.799
91.93,-51.52,-2.337
91.96,-56.924,-1.821
91.99,-59.311,-1.821
92.02,-64.049,-2.131
92.06,-67.979,-1.73
92.09,-71.349,-1.867
92.12,-75.139,-1.833
92.15,-78.613,-1.821
92.19,-82.053,-1.947
92.22,-85.843,-1.993
92.25,-89.458,-2.051
92.28,-93.213,-2.142
92.32,-96.828,-2.142
92.35,-100.513,-2.188
92.38,-104.128,-2.188
92.41,-107.777,-2.222
92.45,-111.427,-2.199
92.48,-114.937,-2.199
92.51,-118.341,-2.257
92.54,-121.956,-2.337
92.58,-125.676,-2.348
92.61,-129.361,-2.371
92.64,-132.941,-2.406
92.67,-136.38,-2.417
92.71,-140.135,-2.497
92.74,-144.241,-2.543
92.77,-148.312,-2.577
92.8,-152.313,-2.635
92.84,-156.139,-2.715
92.87,-159.824,-2.749
92.9,-163.474,-2.761
92.93,-167.088,-2.738
92.97,-170.633,-2.738
93.0,-174.107,-2.738
93.03,-177.617,-2.795
93.06,-181.126,-2.784
93.1,-184.566,-2.83
93.13,-187.9,-2.83
93.16,-191.304,-2.967
93.19,-194.603,-2.933
93.23,-198.112,-3.082
93.26,-201.166,-2.921
93.29,-204.044,-3.15
93.32,-207.764,-3.047
93.36,-210.536,-3.036
93.39,-214.607,-3.196
93.42,-217.029,-2.944
93.45,-219.977,-3.288
93.49,-223.381,-3.139
93.52,-226.083,-3.196
93.55,-228.856,-3.185
93.58,-231.523,-3.219
93.62,-233.945,-3.208
93.65,-236.366,-3.23
93.68,-238.683,-3.23
93.72,-241.174,-3.311
93.75,-243.842,-3.311
93.78,-246.439,-3.368
93.81,-249.176,-3.425
93.85,-252.054,-3.482
93.88,-254.861,-3.505
93.91,-257.704,-3.551
93.94,-260.196,-3.494
93.98,-262.302,-3.505
94.01,-264.372,-3.517
94.04,-266.443,-3.551
94.07,-268.829,-3.574
94.11,-271.111,-3.574
94.14,-273.286,-3.597
94.17,-275.603,-3.62
94.2,-277.814,-3.631
94.24,-279.849,-3.677
94.27,-281.815,-3.712
94.3,-283.78,-3.723
94.33,-285.71,-3.723
94.37,-287.605,-3.735
94.4,-289.5,-3.78
94.43,-291.501,-3.78
94.46,-293.396,-3.815
94.5,-295.256,-3.861
94.53,-297.116,-3.815
94.56,-298.801,-3.815
94.59,-300.52,-3.792
94.63,-301.994,-3.803
94.66,-303.398,-3.861
94.69,-304.802,-3.849
94.72,-306.065,-3.849
94.76,-307.434,-3.826
94.79,-308.557,-3.803
94.82,-309.785,-3.792
94.85,-311.049,-3.769
94.89,-312.207,-3.815
94.92,-313.33,-3.861
94.95,-314.383,-3.872
94.98,-315.331,-3.918
95.02,-316.243,-3.883
95.05,-316.945,-3.838
95.08,-317.612,-3.849
95.11,-318.314,-3.861
95.15,-319.016,-3.803
95.18,-319.542,-3.792
95.21,-320.103,-3.78
95.24,-320.735,-3.815
95.28,-321.262,-3.826
95.31,-321.823,-3.849
95.34,-322.42,-3.861
95.37,-322.911,-3.872
95.41,-323.473,-3.849
95.44,-324.034,-3.838
95.47,-324.455,-3.849
95.5,-325.017,-3.872
95.54,-325.473,-3.838
95.57,-325.894,-3.895
95.6,-326.385,-3.906
95.63,-326.807,-3.918
95.67,-327.158,-3.906
95.7,-327.684,-3.883
95.73,-327.93,-3.849
95.77,-328.421,-3.906
95.8,-328.14,-3.689
95.83,-328.351,-3.941
95.86,-329.579,-3.849
95.9,-329.439,-3.815
95.93,-329.825,-3.929
95.96,-330.035,-3.861
95.99,-330.351,-3.906
96.03,-330.597,-3.792
96.06,-330.772,-3.803
96.09,-330.913,-3.78
96.12,-331.053,-3.803
96.16,-331.194,-3.826
96.19,-331.369,-3.838
96.22,-331.474,-3.803
96.25,-331.544,-3.803
96.29,-331.65,-3.769
96.32,-331.72,-3.712
96.35,-331.79,-3.666
96.38,-331.825,-3.666
96.42,-331.825,-3.689
96.45,-331.895,-3.677
96.48,-331.895,-3.666
96.51,-331.931,-3.666
96.55,-331.895,-3.666
96.58,-331.86,-3.631
96.61,-331.86,-3.574
96.64,-331.79,-3.551
96.68,-331.72,-3.574
96.71,-331.615,-3.563
96.74,-331.509,-3.528
96.77,-331.369,-3.505
96.81,-331.123,-3.494
96.84,-330.843,-3.494
96.87,-330.562,-3.482
96.9,-330.07,-3.391
96.94,-329.509,-3.288
96.97,-328.21,-3.116
97.0,-326.842,-3.162
97.03,-326.175,-3.104
97.07,-324.35,-2.944
97.1,-321.928,-2.967
97.13,-319.682,-2.898
97.16,-317.822,-2.921
97.2,-316.068,-2.784
97.23,-313.541,-2.726
97.26,-310.944,-2.726
97.29,-308.452,-2.669
97.33,-305.82,-2.589
97.36,-303.082,-2.532
97.39,-300.204,-2.52
97.42,-297.151,-2.52
97.46,-294.168,-2.44
97.49,-290.904,-2.36
97.52,-287.605,-2.371
97.55,-284.482,-2.28
97.59,-281.183,-2.211
97.62,-277.919,-2.199
97.65,-274.831,-2.199
97.68,-271.742,-2.199
97.72,-268.794,-2.188
97.75,-265.741,-2.165
97.78,-262.617,-2.142
97.82,-259.459,-2.096
97.85,-256.23,-2.028
97.88,-252.896,-1.97
97.91,-249.632,-1.936
97.95,-246.368,-1.902
97.98,-243.14,-1.89
98.01,-239.876,-1.89
98.04,-236.752,-1.867
98.08,-233.594,-1.787
98.11,-230.505,-1.73
98.14,-227.242,-1.684
98.17,-223.943,-1.638
98.21,-220.538,-1.604
98.24,-217.134,-1.524
98.27,-213.625,-1.489
98.3,-210.045,-1.455
98.34,-206.43,-1.363
98.37,-202.675,-1.317
98.4,-199.025,-1.283
98.43,-195.27,-1.214
98.47,-191.479,-1.18
98.5,-187.689,-1.123
98.53,-183.759,-1.031
98.56,-179.723,-1.031
98.6,-175.757,-1.031
98.63,-171.651,-0.985
98.66,-167.509,-0.928
98.69,-163.193,-0.871
98.73,-158.911,-0.79
98.76,-154.524,-0.756
98.79,-150.172,-0.687
98.82,-145.786,-0.619
98.86,-141.258,-0.596
98.89,-136.801,-0.584
98.92,-132.274,-0.561
98.95,-127.711,-0.527
98.99,-123.254,-0.458
99.02,-118.657,-0.389
99.05,-114.13,-0.367
99.08,-109.637,-0.332
99.12,-105.075,-0.298
99.15,-100.478,-0.298
99.18,-95.95,-0.309
99.21,-91.388,-0.286
99.25,-86.861,-0.252
99.28,-82.228,-0.218
99.31,-77.806,-0.172
99.34,-73.209,-0.16
99.38,-68.681,-0.172
99.41,-64.084,-0.149
99.44,-59.732,-0.137
99.47,-55.17,-0.092
99.51,-50.748,-0.115
99.54,-46.115,-0.069
99.57,-41.763,-0.08
99.6,-36.92,0.011
99.64,-33.446,-0.241
99.67,-28.181,0.298
99.7,-22.742,-0.16
99.73,-19.829,-0.103
99.77,-14.6,0.137
99.8,-9.581,-0.08
99.83,-5.685,-0.126
99.87,-1.334,-0.034
99.9,3.299,-0.046
99.93,7.335,0.057
99.96,11.581,0.332
100.0,15.933,0.607
100.03,20.074,0.939
100.06,24.075,1.409
100.09,28.497,1.821
100.13,33.165,2.005
100.16,37.833,2.073
100.19,42.57,2.119
100.22,47.133,2.051
100.26,51.485,2.016
100.29,55.731,2.016
100.32,59.837,1.993
100.35,63.698,1.936
100.39,67.523,1.925
100.42,71.278,1.879
100.45,74.823,1.879
100.48,78.473,1.925
100.52,82.123,1.993
100.55,85.843,2.062
100.58,89.528,2.119
100.61,93.213,2.177
100.65,96.933,2.211
100.68,100.583,2.222
100.71,104.163,2.211
100.74,107.883,2.222
100.78,111.462,2.211
100.81,114.972,2.268
100.84,118.481,2.303
100.87,122.131,2.406
100.91,125.781,2.394
100.94,129.501,2.497
100.97,133.257,2.486
101.0,136.906,2.555
101.04,140.416,2.417
101.07,143.89,2.612
101.1,148.979,2.692
101.13,152.313,2.497
101.17,156.314,2.83
101.2,160.42,2.681
101.23,163.719,2.795
101.26,167.439,2.83
101.3,171.054,2.841
101.33,174.564,2.784
101.36,178.003,2.818
101.39,181.477,2.83
101.43,184.987,2.887
101.46,188.496,2.887
101.49,191.936,2.99
101.52,195.445,3.013
101.56,198.604,3.024
101.59,201.797,3.059
101.62,205.132,2.967
101.65,208.185,2.99
101.69,211.343,3.047
101.72,214.537,3.082
101.75,217.45,3.15
101.78,220.363,3.208
101.82,223.311,3.242
101.85,226.259,3.265
101.88,229.137,3.276
101.92,231.979,3.265
101.95,234.682,3.23
101.98,237.068,3.253
102.01,239.49,3.276
102.05,241.841,3.311
102.08,244.368,3.368
102.11,247.105,3.437
102.14,249.983,3.482
102.18,252.861,3.494
102.21,255.353,3.482
102.24,257.739,3.517
102.27,260.091,3.494
102.31,262.161,3.505
102.34,264.372,3.574
102.37,266.794,3.586
102.4,269.215,3.563
102.44,271.497,3.574
102.47,273.813,3.608
102.5,276.024,3.608
102.53,278.094,3.643
102.57,280.13,3.677
102.6,282.13,3.7
102.63,284.096,3.712
102.66,285.921,3.735
102.7,287.886,3.746
102.73,289.711,3.746
102.76,291.536,3.78
102.79,293.396,3.735
102.83,295.151,3.735
102.86,296.906,3.746
102.89,298.59,3.815
102.92,300.31,3.849
102.96,301.889,3.895
102.99,303.398,3.826
103.02,304.486,3.838
103.05,305.504,3.838
103.09,307.188,4.009
103.12,308.978,3.861
103.15,309.891,3.849
103.18,311.435,3.872
103.22,312.383,3.815
103.25,313.611,3.929
103.28,314.699,3.838
103.31,315.576,3.906
103.35,316.454,3.895
103.38,317.296,3.861
103.41,317.963,3.815
103.44,318.629,3.769
103.48,319.191,3.723
103.51,319.647,3.78
103.54,320.209,3.803
103.57,320.805,3.826
103.61,321.402,3.826
103.64,321.858,3.849
103.67,322.455,3.883
103.7,323.016,3.861
103.74,323.473,3.883
103.77,324.104,3.849
103.8,324.561,3.803
103.83,324.982,3.826
103.87,325.543,3.849
103.9,325.999,3.861
103.93,326.385,3.883
103.97,326.772,3.918
104.0,327.298,3.918
104.03,327.754,3.803
104.06,328.0,3.826
104.1,328.386,3.746
104.13,328.07,3.769
104.16,328.877,3.987
104.19,329.404,3.78
104.23,329.474,3.918
104.26,329.895,3.872
104.29,330.07,3.861
104.32,330.492,3.815
104.36,330.667,3.792
104.39,330.913,3.769
104.42,331.018,3.757
104.45,331.194,3.769
104.49,331.264,3.792
104.52,331.439,3.815
104.55,331.474,3.838
104.58,331.615,3.872
104.62,331.755,3.815
104.65,331.825,3.769
104.68,331.895,3.735
104.71,331.966,3.712
104.75,331.931,3.712
104.78,331.931,3.723
104.81,332.036,3.723
104.84,332.001,3.677
104.88,331.931,3.7
104.91,331.931,3.677
104.94,332.001,3.62
104.97,331.895,3.54
105.01,331.825,3.528
105.04,331.685,3.54
105.07,331.58,3.528
105.1,331.404,3.528
105.14,331.158,3.528
105.17,330.913,3.494
105.2,330.562,3.46
105.23,330.0,3.379
105.27,329.439,3.311
105.3,328.491,3.23
105.33,327.298,3.173
105.36,325.438,3.047
105.4,323.648,3.116
105.43,322.209,3.036
105.46,320.068,2.967
105.49,317.998,3.013
105.53,315.857,2.875
105.56,313.47,2.83
105.59,311.189,2.761
105.62,308.768,2.692
105.66,306.136,2.658
105.69,303.363,2.612
105.72,300.485,2.566
105.75,297.362,2.509
105.79,294.098,2.451
105.82,290.834,2.406
105.85,287.675,2.325
105.88,284.447,2.28
105.92,281.253,2.268
105.95,278.13,2.268
105.98,275.076,2.245
106.02,271.953,2.257
106.05,268.97,2.257
106.08,265.952,2.199
106.11,262.793,2.177
106.15,259.669,2.119
106.18,256.441,2.005
106.21,253.142,1.947
106.24,249.808,1.902
106.28,246.474,1.879
106.31,243.21,1.867
106.34,239.946,1.833
106.37,236.717,1.81
106.41,233.594,1.787
106.44,230.435,1.741
106.47,227.136,1.684
106.5,223.802,1.638
106.54,220.503,1.569
106.57,217.134,1.535
106.6,213.625,1.512
106.63,210.115,1.478
106.67,206.43,1.455
106.7,202.71,1.409
106.73,199.13,1.352
106.76,195.48,1.26
106.8,191.76,1.18
106.83,187.97,1.111
106.86,184.074,1.077
106.89,179.933,1.077
106.93,175.932,1.031
106.96,171.686,1.008
106.99,167.509,0.974
107.02,163.298,0.894
107.06,158.981,0.825
107.09,154.63,0.745
107.12,150.313,0.676
107.15,145.926,0.63
107.19,141.469,0.596
107.22,136.977,0.573
107.25,132.52,0.538
107.28,127.992,0.47
107.32,123.395,0.447
107.35,118.832,0.435
107.38,114.34,0.389
107.41,109.778,0.332
107.45,105.286,0.298
107.48,100.688,0.275
107.51,96.091,0.241
107.54,91.528,0.229
107.58,86.896,0.241
107.61,82.333,0.252
107.64,77.911,0.206
107.67,73.419,0.149
107.71,68.927,0.08
107.74,64.47,0.057
107.77,59.943,0.034
107.8,55.45,0.023
107.84,50.853,0.011
107.87,46.255,0.034
107.9,41.728,0.011
107.94,37.096,0.046
107.97,32.674,0.011
108.0,28.217,-0.046
108.03,23.724,-0.103
108.07,19.092,-0.069
108.1,14.67,-0.092
108.13,10.037,0.011
108.16,6.633,0.115
108.2,0.807,-0.321
108.23,-3.685,0.195
108.26,-6.598,-0.195
108.29,-11.932,-0.561
108.33,-16.389,-0.642
108.36,-20.004,-1.031
108.39,-24.216,-1.581
108.42,-28.743,-1.821
108.46,-33.2,-2.051
108.49,-37.903,-2.131
108.52,-42.781,-2.073
108.55,-47.273,-1.982
108.59,-51.59,-2.005
108.62,-55.872,-1.97
108.65,-59.943,-1.982
108.68,-63.803,-1.97
108.72,-67.593,-1.947
108.75,-71.278,-1.925
108.78,-74.823,-1.936
108.81,-78.543,-1.947
108.85,-82.228,-1.982
108.88,-85.983,-2.016
108.91,-89.668,-2.085
108.94,-93.353,-2.131
108.98,-96.933,-2.188
109.01,-100.583,-2.177
109.04,-104.198,-2.165
109.07,-107.812,-2.165
109.11,-111.357,-2.188
109.14,-114.902,-2.234
109.17,-118.411,-2.28
109.2,-121.921,-2.303
109.24,-125.606,-2.36
109.27,-129.326,-2.394
109.3,-132.976,-2.429
109.33,-136.38,-2.429
109.37,-140.205,-2.532
109.4,-144.276,-2.532
109.43,-148.312,-2.612
109.46,-152.278,-2.589
109.5,-156.174,-2.738
109.53,-159.718,-2.612
109.56,-162.912,-2.807
109.59,-167.58,-2.864
109.63,-170.457,-2.623
109.66,-173.862,-2.978
109.69,-177.757,-2.818
109.72,-181.021,-2.807
109.76,-184.496,-2.864
109.79,-187.935,-2.921
109.82,-191.339,-2.956
109.85,-194.673,-2.967
109.89,-198.112,-3.013
109.92,-201.06,-2.921
109.95,-203.903,-3.093
109.99,-207.904,-3.116
110.02,-210.677,-2.978
110.05,-213.976,-3.23
110.08,-217.204,-3.093
110.12,-220.047,-3.162
110.15,-223.17,-3.185
110.18,-225.978,-3.185
110.21,-228.68,-3.208
110.25,-231.418,-3.23
110.28,-233.98,-3.208
110.31,-236.401,-3.208
110.34,-238.647,-3.219
110.38,-241.245,-3.299
110.41,-243.947,-3.276
110.44,-246.474,-3.299
110.47,-249.176,-3.379
110.51,-252.054,-3.448
110.54,-254.861,-3.528
110.57,-257.704,-3.563
110.6,-260.196,-3.505
110.64,-262.302,-3.494
110.67,-264.302,-3.505
110.7,-266.443,-3.551
110.73,-268.794,-3.563
110.77,-271.111,-3.597
110.8,-273.357,-3.62
110.83,-275.603,-3.62
110.86,-277.779,-3.631
110.9,-279.849,-3.654
110.93,-281.92,-3.654
110.96,-283.815,-3.689
110.99,-285.745,-3.746
111.03,-287.781,-3.757
111.06,-289.641,-3.78
111.09,-291.536,-3.803
111.12,-293.361,-3.792
111.16,-295.01,-3.803
111.19,-296.8,-3.838
111.22,-298.555,-3.815
111.25,-300.275,-3.803
111.29,-301.854,-3.78
111.32,-303.293,-3.769
111.35,-304.626,-3.769
111.38,-305.96,-3.815
111.42,-307.259,-3.803
111.45,-308.557,-3.803
111.48,-309.715,-3.792
111.51,-311.049,-3.792
111.55,-311.646,-3.723
111.58,-313.155,-3.987
111.61,-314.699,-3.78
111.64,-315.26,-3.861
111.68,-316.313,-3.883
111.71,-317.05,-3.826
111.74,-317.752,-3.826
111.77,-318.349,-3.792
111.81,-318.98,-3.803
111.84,-319.507,-3.803
111.87,-320.174,-3.803
111.9,-320.735,-3.78
111.94,-321.262,-3.838
111.97,-321.858,-3.849
112.0,-322.455,-3.838
112.04,-322.981,-3.826
112.07,-323.508,-3.849
112.1,-324.034,-3.838
112.13,-324.561,-3.826
112.17,-325.017,-3.838
112.2,-325.438,-3.849
112.23,-325.964,-3.872
112.26,-326.35,-3.895
112.3,-326.807,-3.883
112.33,-327.263,-3.838
112.36,-327.649,-3.838
112.39,-327.965,-3.861
112.43,-328.386,-3.838
112.46,-328.281,-3.757
112.49,-328.877,-3.906
112.52,-329.474,-3.746
112.56,-329.614,-3.815
112.59,-329.93,-3.792
112.62,-330.0,-3.849
112.65,-330.457,-3.872
112.69,-330.632,-3.838
112.72,-330.878,-3.815
112.75,-330.913,-3.769
112.78,-331.229,-3.792
112.82,-331.334,-3.677
112.85,-331.369,-3.757
112.88,-331.474,-3.757
112.91,-331.58,-3.769
112.95,-331.72,-3.735
112.98,-331.685,-3.723
113.01,-331.825,-3.723
113.04,-331.79,-3.677
113.08,-331.931,-3.666
113.11,-331.966,-3.597
113.14,-331.86,-3.62
113.17,-331.86,-3.608
113.21,-331.86,-3.608
113.24,-331.895,-3.586
113.27,-331.825,-3.586
113.3,-331.825,-3.574
113.34,-331.72,-3.528
113.37,-331.65,-3.482
113.4,-331.544,-3.425
113.43,-331.299,-3.46
113.47,-331.123,-3.448
113.5,-330.843,-3.448
113.53,-330.492,-3.391
113.56,-330.0,-3.334
113.6,-329.333,-3.299
113.63,-328.561,-3.23
113.66,-326.772,-2.99
113.69,-325.298,-3.093
113.73,-324.245,-2.921
113.76,-321.964,-2.818
113.79,-319.788,-2.933
113.82,-317.822,-2.841
113.86,-315.927,-2.807
113.89,-313.716,-2.692
113.92,-311.014,-2.669
113.95,-308.417,-2.669
113.99,-305.89,-2.6
114.02,-303.223,-2.532
114.05,-300.31,-2.486
114.09,-297.221,-2.451
114.12,-294.133,-2.394
114.15,-290.939,-2.337
114.18,-287.746,-2.291
114.22,-284.482,-2.222
114.25,-281.218,-2.199
114.28,-277.989,-2.199
114.31,-274.866,-2.199
114.35,-271.812,-2.211
114.38,-268.829,-2.222
114.41,-265.811,-2.199
114.44,-262.723,-2.142
114.48,-259.529,-2.085
114.51,-256.195,-2.028
114.54,-252.966,-1.959
114.57,-249.667,-1.879
114.61,-246.404,-1.844
114.64,-243.105,-1.867
114.67,-239.946,-1.81
114.7,-236.717,-1.764
114.74,-233.488,-1.753
114.77,-230.33,-1.707
114.8,-227.066,-1.673
114.83,-223.802,-1.627
114.87,-220.398,-1.558
114.9,-216.994,-1.546
114.93,-213.554,-1.535
114.96,-210.045,-1.489
115.0,-206.395,-1.443
115.03,-202.815,-1.409
115.06,-199.165,-1.34
115.09,-195.41,-1.249
115.13,-191.69,-1.203
115.16,-187.83,-1.134
115.19,-184.004,-1.042
115.22,-179.898,-0.985
115.26,-175.792,-0.962
115.29,-171.616,-0.916
115.32,-167.404,-0.894
115.35,-163.052,-0.859
115.39,-158.806,-0.756
115.42,-154.454,-0.699
115.45,-150.102,-0.653
115.48,-145.786,-0.607
115.52,-141.328,-0.596
115.55,-136.871,-0.573
115.58,-132.309,-0.55
115.61,-127.887,-0.47
115.65,-123.325,-0.458
115.68,-118.762,-0.424
115.71,-114.2,-0.378
115.74,-109.602,-0.344
115.78,-105.145,-0.298
115.81,-100.583,-0.229
115.84,-95.88,-0.229
115.87,-91.318,-0.252
115.91,-86.755,-0.252
115.94,-82.228,-0.252
115.97,-77.806,-0.218
116.0,-73.279,-0.183
116.04,-68.857,-0.149
116.07,-64.4,-0.08
116.1,-59.908,-0.046
116.14,-55.31,-0.057
116.17,-50.748,-0.092
116.2,-46.15,-0.092
116.23,-41.588,-0.092
116.27,-37.096,-0.057
116.3,-32.568,-0.034
116.33,-28.076,0.011
116.36,-23.514,0.011
116.4,-19.057,0.0
116.43,-14.529,-0.034
116.46,-10.213,-0.046
116.49,-5.615,-0.069
116.53,-1.334,-0.069
116.56,3.229,-0.034
116.59,6.387,-0.092
